n: 100
deposito: 47
clusters: 20
factor: 1

xcoord[n]:
1380.0
2848.0
3510.0
457.0
3888.0
984.0
2721.0
1286.0
2716.0
738.0
1251.0
2728.0
3815.0
3683.0
1247.0
123.0
1234.0
252.0
611.0
2576.0
928.0
53.0
1807.0
274.0
2574.0
178.0
2678.0
1795.0
3384.0
3520.0
1256.0
1424.0
3913.0
3085.0
2573.0
463.0
3875.0
298.0
3479.0
2542.0
3955.0
1323.0
3447.0
2936.0
1621.0
3373.0
1393.0
3874.0
938.0
3022.0
2482.0
3854.0
376.0
2519.0
2945.0
953.0
2628.0
2097.0
890.0
2139.0
2421.0
2290.0
1115.0
2588.0
327.0
241.0
1917.0
2991.0
2573.0
19.0
3911.0
872.0
2863.0
929.0
839.0
3893.0
2178.0
3822.0
378.0
1178.0
2599.0
3416.0
2961.0
611.0
3113.0
2597.0
2586.0
161.0
1429.0
742.0
1625.0
1187.0
1787.0
22.0
3640.0
3756.0
776.0
1724.0
198.0
3950.0

ycoord[n]:
939.0
96.0
1671.0
334.0
666.0
965.0
1482.0
525.0
1432.0
1325.0
1832.0
1698.0
169.0
1533.0
1945.0
862.0
1946.0
1240.0
673.0
1676.0
1700.0
857.0
1711.0
1420.0
946.0
24.0
1825.0
962.0
1498.0
1079.0
61.0
1728.0
192.0
1528.0
1969.0
1670.0
598.0
1513.0
821.0
236.0
1743.0
280.0
1830.0
337.0
1830.0
1646.0
1368.0
1318.0
955.0
474.0
1183.0
923.0
825.0
135.0
1622.0
268.0
1479.0
981.0
1846.0
1806.0
1007.0
1810.0
1052.0
302.0
265.0
341.0
687.0
792.0
599.0
674.0
1673.0
1559.0
558.0
1766.0
620.0
102.0
1619.0
899.0
1048.0
100.0
901.0
143.0
1605.0
1384.0
885.0
1830.0
1286.0
906.0
134.0
1025.0
1651.0
706.0
1009.0
987.0
43.0
882.0
392.0
1642.0
1810.0
1558.0

color[n]:
#84a6e9
#3a42b2
#688d41
#7b1349
#f87f6a
#1e33fd
#cd89fd
#d16a6a
#cd89fd
#6be087
#6be087
#cd89fd
#39f6b3
#688d41
#39ed4b
#feff9d
#6be087
#feff9d
#7b1349
#cd89fd
#6be087
#feff9d
#39ed4b
#c45c0e
#3badc5
#bf87c8
#1791df
#84a6e9
#688d41
#e113f6
#d16a6a
#39ed4b
#39f6b3
#688d41
#1791df
#c45c0e
#f87f6a
#c45c0e
#e113f6
#3a42b2
#c31a39
#d16a6a
#688d41
#3a42b2
#39ed4b
#688d41
#4364da
#c31a39
#1e33fd
#729383
#3badc5
#f87f6a
#feff9d
#3a42b2
#cd89fd
#7b1349
#cd89fd
#84a6e9
#6be087
#1791df
#3badc5
#1791df
#1e33fd
#3a42b2
#bf87c8
#bf87c8
#84a6e9
#729383
#3badc5
#feff9d
#c31a39
#6be087
#729383
#6be087
#7b1349
#39f6b3
#1791df
#f87f6a
#feff9d
#d16a6a
#3badc5
#39f6b3
#cd89fd
#6be087
#729383
#1791df
#cd89fd
#feff9d
#d16a6a
#1e33fd
#39ed4b
#1e33fd
#84a6e9
#feff9d
#39f6b3
#e113f6
#7b1349
#39ed4b
#c45c0e
#c31a39

Np[1]: 41 48 71 100  ;
Np[2]: 26 65 66  ;
Np[3]: 15 23 32 45 91 98  ;
Np[4]: 2 40 44 54 64  ;
Np[5]: 24 36 38 99  ;
Np[6]: 8 31 42 80 89  ;
Np[7]: 7 9 12 20 55 57 83 87  ;
Np[8]: 5 37 52 78  ;
Np[9]: 6 49 63 90 92  ;
Np[10]: 1 28 58 67 93  ;
Np[11]: 16 18 22 53 70 79 88 94  ;
Np[12]: 10 11 17 21 59 72 74 84  ;
Np[13]: 50 68 73 85  ;
Np[14]: 3 14 29 34 43 46  ;
Np[15]: 13 33 76 82 95  ;
Np[16]: 4 19 56 75 97  ;
Np[17]: 27 35 60 62 77 86  ;
Np[18]: 25 51 61 69 81  ;
Np[19]: 47  ;
Np[20]: 30 39 96  ;


c[n,n]:
	1692.83	2252.27	1103.61	2522.81	396.85	1446.77	424.54	1424.06	749.11	902.27	1546.99	2553.85	2378.37	1014.75	1259.36	1017.53	1167.47	813.71	1404.84	885.11	1329.53	882.22	1206.07	1194.02	1510.64	1571.56	415.64	2080.5	2144.57	886.71	790.23	2640.85	1803.87	1576.12	1172.71	2518.19	1224.83	2102.31	1358.11	2697.6	661.46	2250.86	1668.39	923.02	2114.69	429.2	2522.63	442.29	1706.57	1128.69	2474.05	1010.45	1394.18	1707.55	795.34	1359.82	718.23	1030.9	1152.29	1043.22	1259.66	288.09	1365.66	1250.23	1286.44	593.19	1617.69	1240.5	1386.56	2635.28	801.54	1531.16	941.98	628.05	2648.72	1048.43	2442.33	1007.91	862.97	1219.59	2186.07	1715.55	888.47	1733.84	1508.3	1254.93	1219.45	806.49	643.77	752.97	302.55	412.98	1358.85	2431.13	2376.68	814.88	782.65	1468.25	2643.49	
1692.83		1708.47	2402.82	1185.96	2056.61	1391.81	1619.84	1342.51	2441.83	2358.84	1606.49	969.75	1661.98	2445.81	2830.61	2455.1	2836.89	2310.22	1603.24	2501.84	2896.75	1921.43	2894.56	893.07	2670.97	1737.34	1363.37	1500.97	1190.74	1592.38	2165.92	1069.32	1451.48	1893.08	2857.57	1143.12	2917.26	961.14	336.51	1984.45	1536.06	1834.55	256.56	2124.21	1636.5	1932.62	1595.61	2094.27	416.12	1146.96	1302.29	2577.25	331.3	1529.08	1902.79	1400.39	1160.7	2626.07	1851.16	1006.11	1802.54	1979.2	331.72	2526.66	2618.49	1102.74	710.54	573.27	2887.44	1901.81	2458.65	462.24	2543.91	2076.21	1045.02	1663.86	1262.33	2647.11	1670.0	842.63	569.94	1513.23	2581.3	832.31	1752.07	1218.5	2806.43	1419.51	2301.8	1978.32	1769.47	1399.75	2963.13	793.77	1200.94	2093.04	1911.41	3155.99	1830.81	
2252.27	1708.47		3332.92	1073.74	2622.81	811.32	2501.9	829.19	2793.51	2264.73	782.47	1532.65	221.3	2279.53	3482.28	2292.55	3286.38	3065.98	934.01	2582.16	3551.54	1703.47	3245.72	1183.94	3716.83	846.13	1855.78	214.02	592.08	2769.95	2086.78	1532.92	448.41	983.25	3047.0	1133.38	3215.88	850.57	1730.97	450.79	2591.88	171.03	1452.25	1895.68	139.26	2138.57	507.06	2669.8	1292.65	1137.95	823.31	3246.18	1827.94	567.12	2916.62	902.66	1572.47	2625.84	1377.63	1275.47	1227.89	2473.7	1650.53	3479.7	3529.2	1872.41	1020.78	1423.78	3630.58	401.0	2640.38	1287.39	2582.75	2870.34	1615.07	1333.01	832.66	3193.36	2811.81	1192.82	1530.89	552.95	2913.17	880.57	926.74	1001.0	3435.26	2587.07	2842.38	1885.11	2515.46	1845.8	3554.43	1633.18	826.46	3018.38	1786.24	3314.92	454.28	
1103.61	2402.82	3332.92		3447.03	822.13	2538.42	850.72	2511.71	1030.07	1695.42	2649.14	3362.05	3441.61	1794.27	624.77	1789.49	928.9	372.34	2508.21	1444.92	660.87	1928.37	1101.31	2203.69	417.06	2675.06	1478.05	3149.96	3152.3	844.35	1696.56	3458.92	2886.52	2674.08	1336.01	3428.18	1189.67	3060.99	2087.3	3771.11	867.68	3343.37	2479.0	1895.5	3197.56	1394.72	3555.86	785.49	2568.82	2195.77	3447.68	497.64	2071.58	2801.62	500.37	2454.44	1763.01	1572.78	2235.15	2076.11	2353.39	973.9	2131.24	147.18	216.11	1502.07	2575.06	2132.53	554.48	3704.46	1293.39	2416.4	1507.78	477.2	3443.82	2147.8	3412.1	718.36	758.02	2215.77	2965.16	2808.11	1061.23	2712.55	2611.06	2332.15	644.05	992.36	747.47	1760.32	819.32	1491.48	784.62	3196.27	3344.2	324.23	1821.03	1498.55	3701.25	
2522.81	1185.96	1073.74	3447.03		2919.35	1423.99	2605.82	1400.12	3218.2	2883.28	1552.62	502.33	890.91	2934.4	3770.1	2946.54	3681.03	3277.01	1655.73	3135.4	3839.75	2328.64	3691.82	1343.5	3765.14	1675.52	2113.83	972.75	553.17	2700.64	2683.12	474.66	1178.07	1851.22	3569.12	69.23	3688.56	437.39	1413.02	1079.08	2593.88	1244.74	1007.25	2548.37	1107.08	2591.88	652.15	2964.12	887.03	1498.04	259.24	3515.6	1468.37	1342.83	2961.86	1499.52	1818.49	3221.86	2087.73	1506.11	1965.28	2799.74	1350.0	3583.51	3661.45	1971.11	905.81	1316.71	3869.01	1007.26	3145.43	1030.67	3156.85	3049.35	564.02	1957.63	242.17	3530.73	2768.48	1310.25	704.49	1319.49	3354.74	805.35	1738.27	1442.08	3734.72	2515.89	3166.42	2468.07	2701.3	2128.81	3879.3	670.55	253.14	3124.04	2373.91	3863.27	894.15	
396.85	2056.61	2622.81	822.13	2919.35		1812.31	533.67	1793.85	436.02	907.18	1891.78	2940.78	2758.12	1014.68	867.14	1012.35	781.95	473.7	1743.56	737.13	937.24	1110.79	843.28	1590.11	1239.0	1899.8	811.01	2458.47	2538.56	944.03	880.78	3029.29	2175.13	1879.61	876.62	2914.2	878.01	2499.15	1720.12	3071.18	764.29	2610.48	2050.53	1074.24	2484.17	574.19	2911.48	47.07	2096.31	1513.78	2870.31	623.91	1745.03	2068.13	697.69	1722.48	1113.11	886.0	1428.74	1437.61	1555.53	157.26	1735.62	960.03	970.27	973.54	2014.44	1630.61	1007.92	3011.41	604.47	1922.57	802.89	374.23	3034.31	1361.38	2838.77	611.66	886.49	1616.27	2567.16	2078.01	560.97	2130.5	1830.3	1633.84	825.11	942.65	249.33	938.87	329.07	804.2	962.25	2811.48	2773.24	609.58	1002.96	1154.05	3024.7	
1446.77	1391.81	811.32	2538.42	1423.99	1812.31		1724.84	50.25	1989.21	1511.09	216.11	1709.04	963.35	1545.01	2670.96	1557.71	2480.83	2259.77	242.2	1806.2	2740.23	942.25	2447.79	555.79	2931.32	345.68	1062.02	663.19	894.88	2040.95	1320.12	1756.41	366.9	508.99	2265.81	1453.68	2423.2	1005.73	1258.79	1261.3	1843.69	805.1	1165.01	1153.73	672.31	1332.88	1164.61	1859.25	1051.98	382.78	1263.4	2435.3	1362.06	264.15	2144.67	93.05	800.24	1866.83	666.11	561.81	541.61	1662.57	1187.47	2685.58	2729.89	1130.68	740.95	895.32	2820.22	1205.23	1850.6	934.85	1814.36	2070.02	1810.52	560.02	1245.83	2382.86	2071.42	593.67	1508.62	269.68	2112.27	714.19	369.43	237.99	2624.0	1867.18	2031.08	1108.95	1719.11	1046.94	2744.02	1707.42	1196.34	2229.6	1009.76	2544.23	1231.35	
424.54	1619.84	2501.9	850.72	2605.82	533.67	1724.84		1693.38	969.69	1307.47	1858.84	2553.93	2600.32	1420.54	1210.84	1421.95	1257.13	691.03	1728.84	1228.33	1276.92	1295.39	1350.99	1355.06	1216.0	1904.64	670.86	2312.65	2301.67	464.97	1210.89	2648.02	2059.71	1934.3	1410.09	2590.03	1397.24	2212.89	1288.82	2933.78	247.78	2524.47	1660.68	1347.31	2369.01	849.76	2706.77	553.18	1736.75	1365.06	2598.66	958.18	1293.21	1988.89	420.64	1646.54	930.41	1379.08	1539.02	1233.11	1630.72	554.05	1320.96	993.62	1061.08	651.46	1725.78	1289.13	1275.73	2865.05	1113.8	1577.35	1291.33	456.98	2641.09	1411.56	2563.43	1047.85	438.51	1365.78	2163.98	1992.99	1092.48	1862.13	1849.8	1506.36	1187.77	416.33	738.87	1175.92	206.31	696.6	1345.79	2402.84	2495.67	527.06	1199.81	1683.74	2857.27	
1424.06	1342.51	829.19	2511.71	1400.12	1793.85	50.25	1693.38		1980.89	1518.63	266.27	1674.21	972.26	1556.0	2654.91	1568.6	2471.47	2237.66	281.31	1807.97	2724.37	950.85	2442.03	506.32	2902.4	394.83	1033.99	671.25	878.08	2002.81	1325.47	1723.49	381.28	555.71	2265.54	1427.88	2419.36	977.49	1208.59	1277.44	1807.64	832.33	1116.88	1165.09	690.97	1324.55	1163.6	1840.87	1005.68	341.7	1246.65	2417.45	1311.88	297.56	2112.6	99.76	765.87	1872.34	687.61	517.35	569.53	1645.48	1137.23	2658.8	2704.79	1092.44	696.58	845.19	2801.49	1219.06	1848.37	886.28	1817.95	2045.11	1776.01	569.57	1227.73	2369.32	2034.62	543.74	1466.81	299.92	2105.55	675.88	415.41	195.49	2608.58	1827.89	2015.52	1112.76	1692.61	1020.77	2730.51	1668.26	1176.48	2201.18	1013.98	2546.21	1240.42	
749.11	2441.83	2793.51	1030.07	3218.2	436.02	1989.21	969.69	1980.89		721.26	2024.66	3286.98	2952.34	802.17	769.8	794.77	493.38	664.25	1871.21	420.39	829.61	1136.55	473.63	1874.71	1416.4	2003.4	1117.59	2651.65	2792.86	1366.02	795.62	3371.1	2355.76	1944.73	441.19	3220.14	478.48	2786.95	2107.21	3244.04	1197.6	2755.67	2409.84	1017.21	2654.48	656.41	3136.01	420.59	2437.39	1749.77	3141.82	617.29	2141.98	2226.89	1078.64	1896.26	1401.86	542.72	1481.27	1712.78	1626.02	465.47	2114.01	1136.89	1102.39	1340.55	2315.19	1973.4	969.93	3192.03	269.65	2259.18	480.59	712.2	3383.75	1469.71	3113.28	454.23	1301.62	1908.69	2927.25	2240.56	140.04	2415.41	1926.37	1848.41	713.08	1376.94	300.03	945.01	764.7	1095.56	791.77	3172.56	3050.34	933.77	1035.71	725.83	3220.44	
902.27	2358.84	2264.73	1695.42	2883.28	907.18	1511.09	1307.47	1518.63	721.26		1483.07	3056.09	2450.31	113.07	1487.71	115.26	1161.23	1323.96	1334.15	348.93	1544.61	569.01	1060.32	1592.27	2102.43	1427.02	1026.08	2158.99	2390.68	1771.01	201.85	3126.63	1859.02	1329.08	804.48	2899.68	1004.97	2446.65	2052.78	2705.46	1553.67	2196.0	2252.61	370.01	2130.14	485.24	2672.89	931.18	2231.73	1391.6	2757.15	1334.04	2118.4	1706.97	1592.14	1421.53	1199.97	361.27	888.38	1431.62	1039.23	791.77	2031.86	1819.14	1800.88	1324.61	2027.12	1807.75	1690.8	2664.75	467.09	2054.66	328.69	1280.11	3158.02	951.16	2735.06	1173.36	1733.54	1638.25	2745.9	1725.0	781.22	2088.98	1346.0	1442.34	1430.24	1707.3	954.11	415.5	1127.82	982.15	1491.46	2984.6	2679.09	1516.32	509.73	1053.23	2712.87	
1546.99	1606.49	782.47	2649.14	1552.62	1891.78	216.11	1858.84	266.27	2024.66	1483.07		1876.01	969.15	1501.46	2735.86	1514.44	2518.0	2352.09	153.58	1800.0	2804.09	921.09	2469.7	767.61	3050.37	136.49	1188.35	685.81	1005.2	2201.49	1304.35	1916.31	395.41	312.2	2265.17	1589.22	2437.03	1154.61	1473.78	1227.82	1996.18	731.02	1376.8	1114.84	647.09	1375.18	1207.36	1938.08	1258.81	570.74	1366.93	2508.79	1576.91	229.92	2279.37	240.75	955.12	1843.95	598.82	756.13	452.09	1737.55	1403.0	2796.12	2833.13	1296.09	943.4	1109.88	2896.08	1183.26	1861.2	1147.97	1800.28	2174.95	1975.97	555.64	1354.71	2438.24	2226.23	807.37	1700.4	250.87	2140.16	899.55	185.97	435.78	2686.4	2033.1	2096.93	1104.0	1832.69	1166.28	2797.85	1889.65	1312.49	2348.6	1005.56	2532.48	1229.99	
2553.85	969.75	1532.65	3362.05	502.33	2940.78	1709.04	2553.93	1674.21	3286.98	3056.09	1876.01		1370.37	3122.31	3756.48	3133.57	3720.49	3243.4	1950.94	3267.83	3824.39	2531.76	3755.49	1464.18	3639.89	2008.76	2170.08	1397.14	956.62	2561.28	2854.36	100.66	1542.65	2186.91	3672.72	433.18	3765.05	733.48	1274.76	1580.21	2494.47	1701.28	894.91	2751.83	1541.72	2702.53	1150.51	2982.44	849.63	1674.84	755.01	3501.01	1296.45	1693.55	2863.71	1767.79	1900.23	3371.64	2342.81	1626.49	2240.2	2840.72	1234.19	3489.32	3578.14	1967.42	1033.01	1314.33	3829.44	1507.06	3254.74	1028.41	3298.39	3009.98	102.83	2186.84	730.03	3547.62	2637.9	1419.32	399.85	1670.75	3426.64	1002.73	2059.72	1660.76	3727.58	2386.26	3189.99	2644.32	2682.3	2195.08	3880.2	215.64	715.44	3047.17	2557.74	3971.85	1395.55	
2378.37	1661.98	221.3	3441.61	890.91	2758.12	963.35	2600.32	972.26	2952.34	2450.31	969.15	1370.37		2470.6	3622.68	2483.58	3443.49	3190.11	1116.2	2760.06	3692.41	1884.43	3410.87	1254.77	3816.03	1046.56	1972.46	301.04	482.37	2838.51	2267.4	1360.58	598.02	1192.56	3222.91	954.51	3385.06	740.65	1727.45	343.63	2672.0	379.35	1410.12	2083.28	329.95	2295.94	287.59	2805.19	1248.36	1250.96	633.51	3381.94	1819.15	743.35	3008.84	1056.38	1679.32	2810.48	1567.95	1367.23	1420.27	2612.66	1647.54	3587.56	3642.56	1958.18	1013.88	1450.67	3763.35	267.55	2811.12	1273.98	2763.84	2986.96	1446.33	1507.46	649.06	3340.4	2885.92	1254.78	1415.41	725.58	3075.61	863.02	1125.88	1124.46	3577.38	2652.87	2984.55	2061.38	2629.44	1967.08	3701.49	1490.62	655.08	3122.9	1962.03	3495.99	268.17	
1014.75	2445.81	2279.53	1794.27	2934.4	1014.68	1545.01	1420.54	1556.0	802.17	113.07	1501.46	3122.31	2470.6		1560.85	13.04	1219.45	1422.14	1355.95	402.23	1615.36	606.92	1105.6	1661.0	2198.41	1436.02	1125.43	2183.25	2432.38	1884.02	280.03	3190.7	1884.71	1326.22	830.83	2953.1	1042.7	2499.04	2144.23	2715.52	1666.73	2203.0	2332.03	391.28	2146.92	595.18	2700.79	1037.1	2305.31	1451.16	2800.17	1418.82	2212.26	1728.45	1702.58	1457.5	1285.22	370.47	902.77	1502.7	1051.7	902.7	2120.79	1915.41	1893.37	1425.29	2090.68	1889.44	1767.32	2677.85	538.16	2129.61	364.92	1386.39	3224.59	986.43	2779.34	1248.91	1846.29	1708.17	2819.89	1747.4	848.07	2146.06	1354.89	1492.38	1502.97	1820.12	1049.49	478.87	1240.45	1080.6	1555.12	3056.8	2724.89	1622.85	565.1	1057.65	2730.56	
1259.36	2830.61	3482.28	624.77	3770.1	867.14	2670.96	1210.84	2654.91	769.8	1487.71	2735.86	3756.48	3622.68	1560.85		1552.22	399.41	523.32	2584.53	1162.01	70.18	1885.91	578.07	2452.44	839.8	2730.46	1674.99	3322.44	3403.92	1387.55	1562.87	3848.77	3035.95	2688.48	876.62	3761.28	674.11	3356.25	2498.69	3931.97	1333.69	3462.08	2861.57	1783.54	3343.23	1367.09	3778.62	820.29	2924.85	2380.74	3731.5	255.69	2503.87	2922.55	1020.65	2579.87	1977.58	1247.62	2226.07	2302.57	2365.29	1010.03	2527.81	630.89	534.2	1802.52	2868.85	2464.08	214.85	3873.84	1023.14	2756.81	1211.14	755.79	3845.84	2189.99	3699.19	315.63	1301.41	2476.31	3370.58	2933.65	714.58	2990.09	2656.63	2499.23	58.14	1495.2	640.1	1696.62	1075.38	1670.48	160.7	3611.1	3633.06	804.56	1780.9	950.96	3889.77	
1017.53	2455.1	2292.55	1789.49	2946.54	1012.35	1557.71	1421.95	1568.6	794.77	115.26	1514.44	3133.57	2483.58	13.04	1552.22		1209.45	1417.27	1368.89	392.62	1606.45	619.32	1094.66	1672.0	2192.99	1449.06	1132.69	2196.18	2444.89	1885.13	289.18	3202.12	1897.61	1339.2	818.91	2965.13	1031.3	2511.11	2152.9	2728.56	1668.38	2216.04	2342.15	404.01	2159.94	599.47	2713.67	1034.26	2315.97	1462.76	2812.64	1411.67	2220.57	1741.41	1701.37	1470.14	1294.6	358.24	915.76	1513.5	1064.72	901.89	2129.8	1910.08	1887.35	1432.33	2102.09	1899.3	1759.04	2690.88	529.92	2140.14	354.15	1383.58	3235.83	999.03	2791.77	1240.62	1846.85	1719.08	2830.54	1760.34	839.03	2157.86	1367.93	1504.49	1494.3	1822.46	1044.18	489.8	1240.89	1088.02	1545.52	3067.61	2737.26	1620.09	576.64	1044.89	2743.57	
1167.47	2836.89	3286.38	928.9	3681.03	781.95	2480.83	1257.13	2471.47	493.38	1161.23	2518.0	3720.49	3443.49	1219.45	399.41	1209.45		671.1	2364.54	817.66	431.61	1624.77	181.34	2340.54	1218.25	2495.54	1567.84	3142.61	3271.96	1548.57	1269.54	3808.05	2847.6	2432.79	478.98	3679.44	276.85	3254.09	2500.42	3737.01	1438.28	3249.02	2831.83	1490.72	3147.3	1148.16	3622.84	742.85	2873.96	2230.73	3615.92	433.13	2521.97	2719.96	1198.41	2387.99	1863.09	879.93	1970.06	2181.48	2116.21	883.24	2517.29	977.88	899.07	1754.43	2775.4	2407.89	612.08	3684.53	697.25	2698.6	857.32	853.8	3814.7	1962.94	3586.25	229.65	1468.7	2371.36	3348.78	2733.48	386.8	2882.94	2418.08	2334.45	346.17	1615.11	535.09	1433.2	1076.75	1552.28	341.92	3593.24	3522.24	996.83	1525.91	572.55	3711.65	
813.71	2310.22	3065.98	372.34	3277.01	473.7	2259.77	691.03	2237.66	664.25	1323.96	2352.09	3243.4	3190.11	1422.14	523.32	1417.27	671.1		2206.18	1074.81	587.55	1583.62	819.5	1981.89	780.19	2366.35	1218.76	2893.12	2937.2	889.14	1331.91	3336.85	2617.58	2351.4	1007.93	3264.86	896.42	2871.82	1979.83	3511.02	813.26	3062.93	2349.15	1535.82	2928.37	1046.21	3326.14	431.8	2419.2	1939.26	3252.62	279.87	1982.4	2519.55	530.08	2172.08	1517.58	1205.72	1902.23	1840.56	2027.76	630.6	2011.51	497.11	497.12	1306.08	2382.97	1963.4	592.0	3448.19	923.64	2254.93	1138.32	234.08	3331.3	1830.41	3218.94	441.49	806.11	2001.03	2854.63	2528.07	711.0	2510.97	2298.44	2067.94	506.74	979.61	375.59	1408.79	576.94	1223.06	667.47	3093.82	3151.94	325.86	1475.71	1209.69	3454.29	
1404.84	1603.24	934.01	2508.21	1655.73	1743.56	242.2	1728.84	281.31	1871.21	1334.15	153.58	1950.94	1116.2	1355.95	2584.53	1368.89	2364.54	2206.18		1648.17	2652.6	769.8	2316.19	730.0	2911.96	180.57	1058.19	827.37	1116.94	2085.82	1153.17	1997.45	530.08	293.02	2113.01	1688.04	2283.82	1243.56	1440.4	1380.63	1875.85	884.51	1386.55	967.34	797.56	1222.44	1346.47	1789.66	1282.08	501.88	1483.34	2358.86	1542.05	372.93	2148.63	203.75	844.08	1694.55	455.93	686.72	315.84	1588.68	1374.05	2654.98	2689.69	1188.45	976.57	1077.0	2746.32	1335.0	1708.01	1154.25	1649.46	2032.81	2052.31	402.06	1468.42	2285.95	2106.7	775.34	1748.05	391.49	1986.58	956.06	155.43	390.13	2534.78	1921.82	1946.11	951.33	1694.17	1033.16	2645.3	1949.05	1422.26	2211.03	852.68	2381.77	1379.06	
885.11	2501.84	2582.16	1444.92	3135.4	737.13	1806.2	1228.33	1807.97	420.39	348.93	1800.0	3267.83	2760.06	402.23	1162.01	392.62	817.66	1074.81	1648.17		1215.02	879.07	711.42	1810.48	1836.16	1754.46	1138.57	2464.29	2665.35	1671.5	496.79	3344.29	2163.85	1666.85	465.97	3146.3	657.17	2698.19	2179.06	3027.31	1473.91	2522.35	2426.9	705.09	2445.6	571.36	2970.66	745.07	2426.5	1637.74	3027.41	1034.57	2231.7	2018.51	1432.22	1714.3	1372.41	150.86	1215.63	1645.99	1366.43	674.44	2170.25	1555.77	1522.78	1415.73	2253.98	1979.45	1370.75	2983.12	151.71	2246.86	66.01	1083.66	3368.21	1252.62	3002.8	853.0	1619.41	1852.2	2935.03	2035.22	447.6	2332.05	1674.06	1708.91	1103.96	1644.19	700.16	698.72	1027.19	1102.43	1152.91	3178.14	2943.93	1316.8	798.11	738.24	3025.33	
1329.53	2896.75	3551.54	660.87	3839.75	937.24	2740.23	1276.92	2724.37	829.61	1544.61	2804.09	3824.39	3692.41	1615.36	70.18	1606.45	431.61	587.55	2652.6	1215.02		1950.85	604.82	2522.57	842.33	2797.79	1745.16	3392.11	3474.1	1442.51	1624.28	3916.86	3105.36	2754.44	910.53	3830.77	700.26	3426.19	2565.3	4001.32	1394.93	3530.72	2929.52	1845.36	3412.47	1434.13	3848.71	890.41	2993.6	2450.78	3801.57	324.58	2569.52	2991.47	1075.6	2649.06	2047.76	1295.64	2291.72	2372.75	2431.54	1079.75	2595.04	652.33	549.18	1871.74	2938.72	2533.17	186.13	3943.35	1078.69	2825.86	1262.4	820.95	3913.52	2257.49	3769.23	376.97	1355.98	2546.38	3437.96	3002.66	767.52	3060.13	2723.72	2569.07	118.6	1554.38	709.19	1761.14	1144.01	1740.65	133.65	3678.2	3703.08	859.62	1846.2	963.97	3959.55	
