n: 150
deposito: 7
clusters: 30
factor: 1

xcoord[n]:
1357.0
2650.0
1774.0
1307.0
3806.0
2687.0
43.0
3092.0
185.0
834.0
40.0
1183.0
2048.0
1097.0
1838.0
234.0
3314.0
737.0
779.0
2312.0
2576.0
3078.0
2781.0
705.0
3409.0
323.0
1660.0
3729.0
693.0
2361.0
2433.0
554.0
913.0
3586.0
2636.0
1000.0
482.0
3704.0
3635.0
1362.0
2049.0
2552.0
3939.0
219.0
812.0
901.0
2513.0
242.0
826.0
3278.0
86.0
14.0
1327.0
2773.0
2469.0
3835.0
1031.0
3853.0
1868.0
1544.0
457.0
3174.0
192.0
2318.0
2232.0
396.0
2365.0
2499.0
1410.0
2990.0
3646.0
3394.0
1779.0
1058.0
2933.0
3099.0
2178.0
138.0
2082.0
2302.0
805.0
22.0
3213.0
99.0
1533.0
3564.0
29.0
3808.0
2221.0
3499.0
3124.0
781.0
1027.0
3249.0
3297.0
213.0
721.0
3736.0
868.0
960.0
3825.0
2779.0
201.0
2502.0
765.0
3105.0
1937.0
3364.0
3702.0
2164.0
3019.0
3098.0
3239.0
3359.0
2081.0
1398.0
618.0
1878.0
3803.0
397.0
3035.0
2502.0
3230.0
3479.0
958.0
3423.0
78.0
96.0
3431.0
2053.0
3048.0
571.0
3393.0
2835.0
144.0
923.0
989.0
3061.0
2977.0
1668.0
878.0
678.0
1086.0
640.0
3551.0
106.0
2243.0
3796.0
2643.0
48.0

ycoord[n]:
1905.0
802.0
107.0
964.0
746.0
1353.0
1957.0
1668.0
1542.0
629.0
462.0
1391.0
1628.0
643.0
1732.0
1118.0
1881.0
1285.0
777.0
1949.0
189.0
1541.0
478.0
1812.0
1917.0
1714.0
1556.0
1188.0
1383.0
640.0
1538.0
1825.0
317.0
1909.0
727.0
457.0
1337.0
1082.0
1174.0
1526.0
417.0
1909.0
640.0
898.0
351.0
1552.0
1572.0
584.0
1226.0
799.0
1065.0
454.0
1893.0
1286.0
1838.0
963.0
428.0
1712.0
197.0
863.0
1607.0
1064.0
1004.0
1925.0
1374.0
828.0
1649.0
658.0
307.0
214.0
1018.0
1028.0
90.0
372.0
1459.0
173.0
978.0
1610.0
1753.0
1127.0
272.0
1617.0
1085.0
536.0
1780.0
676.0
6.0
1375.0
291.0
1885.0
408.0
671.0
1041.0
378.0
491.0
220.0
186.0
1542.0
731.0
303.0
1101.0
435.0
693.0
1274.0
833.0
1823.0
1400.0
1498.0
1624.0
1874.0
189.0
1594.0
1376.0
1693.0
1011.0
1100.0
1953.0
59.0
886.0
1217.0
152.0
146.0
380.0
1023.0
1670.0
1241.0
1066.0
691.0
78.0
1461.0
1.0
1711.0
782.0
1472.0
1185.0
108.0
1997.0
1211.0
39.0
658.0
715.0
1599.0
868.0
110.0
1673.0
1267.0
1332.0
1401.0
1320.0
267.0

color[n]:
#2a2dda
#eeed67
#f4c2d5
#24da22
#ae6e9e
#6d9ad0
#8ce4a1
#5a4b66
#21c93d
#5c2f79
#93c07e
#fd1bd8
#744d2f
#ca490d
#744d2f
#7edaab
#af32f0
#1b1b66
#5c2f79
#55e0
#4a313f
#5a4b66
#eeed67
#d89b1f
#af32f0
#21c93d
#744d2f
#1c4276
#1b1b66
#eeed67
#712c0f
#d89b1f
#ca490d
#af32f0
#eeed67
#ca490d
#1b1b66
#1c4276
#1c4276
#fd1bd8
#bd0a6c
#55e0
#ae6e9e
#7edaab
#ca490d
#1b1b66
#6d9ad0
#93c07e
#1b1b66
#93dd0b
#7edaab
#93c07e
#2a2dda
#6d9ad0
#55e0
#ae6e9e
#ca490d
#af32f0
#f4c2d5
#24da22
#21c93d
#93dd0b
#7edaab
#55e0
#712c0f
#7edaab
#55e0
#eeed67
#4ee6c6
#c8edd5
#1c4276
#93dd0b
#f4c2d5
#ca490d
#5a4b66
#c8edd5
#3fdb9a
#21c93d
#744d2f
#3fdb9a
#ca490d
#21c93d
#93dd0b
#93c07e
#2a2dda
#930be3
#b1a5f3
#1c4276
#bd0a6c
#af32f0
#930be3
#5c2f79
#5c2f79
#930be3
#930be3
#b1a5f3
#ca490d
#1c4276
#5c2f79
#ca490d
#1c4276
#eeed67
#93c07e
#6d9ad0
#5c2f79
#5a4b66
#712c0f
#5a4b66
#1c4276
#55e0
#c8edd5
#5a4b66
#93dd0b
#5a4b66
#3fdb9a
#24da22
#d89b1f
#f4c2d5
#ae6e9e
#7edaab
#c8edd5
#4a313f
#930be3
#93dd0b
#d89b1f
#93dd0b
#7edaab
#93c07e
#200cfe
#712c0f
#c8edd5
#d89b1f
#930be3
#6d9ad0
#7edaab
#ca490d
#d89b1f
#93dd0b
#c8edd5
#24da22
#5c2f79
#d89b1f
#5c2f79
#ca490d
#af32f0
#7edaab
#712c0f
#1c4276
#6d9ad0
#b1a5f3

Np[1]: 5 43 56 119  ;
Np[2]: 7  ;
Np[3]: 3 59 73 118  ;
Np[4]: 20 42 55 64 67 110  ;
Np[5]: 87 96 150  ;
Np[6]: 17 25 34 58 90 145  ;
Np[7]: 12 40  ;
Np[8]: 70 76 111 121 131 139  ;
Np[9]: 16 44 51 63 66 120 127 135 146  ;
Np[10]: 77 80 115  ;
Np[11]: 14 33 36 45 57 74 81 97 100 136 144  ;
Np[12]: 50 62 72 83 113 124 126 138  ;
Np[13]: 4 60 116 140  ;
Np[14]: 24 32 117 125 132 137 142  ;
Np[15]: 28 38 39 71 88 98 101 109 148  ;
Np[16]: 6 47 54 104 134 149  ;
Np[17]: 86 91 94 95 123 133  ;
Np[18]: 8 22 75 106 108 112 114  ;
Np[19]: 1 53 85  ;
Np[20]: 10 19 92 93 99 105 141 143  ;
Np[21]: 2 23 30 35 68 102  ;
Np[22]: 13 15 27 79  ;
Np[23]: 21 122  ;
Np[24]: 11 48 52 84 103 128  ;
Np[25]: 18 29 37 46 49  ;
Np[26]: 9 26 61 78 82  ;
Np[27]: 129  ;
Np[28]: 69  ;
Np[29]: 41 89  ;
Np[30]: 31 65 107 130 147  ;


c[n,n]:
	1699.55	1845.72	942.33	2709.41	1440.0	1315.03	1751.11	1226.93	1379.02	1953.65	542.65	744.45	1288.5	511.17	1371.31	1957.15	876.81	1267.47	956.01	2104.9	1759.07	2015.96	658.6	2052.04	1051.49	462.18	2478.0	844.62	1615.0	1136.87	806.98	1648.9	2229.0	1738.83	1491.36	1043.19	2487.11	2392.41	379.03	1641.04	1195.01	2875.23	1519.57	1646.8	576.67	1203.01	1728.66	861.98	2216.64	1523.5	1977.13	32.31	1545.39	1114.02	2651.01	1512.55	2503.45	1782.8	1058.65	948.05	2002.19	1472.76	961.21	1023.52	1443.42	1040.0	1690.91	1598.88	2350.78	2454.85	2217.77	1863.41	1561.89	1637.89	2456.5	1238.29	1254.19	740.76	1224.05	1723.77	1365.71	2029.07	1859.23	215.87	2526.12	2317.28	2507.65	1830.71	2142.09	2315.88	1361.81	924.88	2431.34	2400.62	2036.65	1832.88	2406.53	1271.77	1650.46	2595.66	2045.23	1674.9	1307.36	1224.6	1749.92	769.04	2047.85	2361.78	807.6	2388.91	1768.56	1954.93	2013.19	1150.4	806.04	740.56	1918.11	2649.77	1181.08	2426.66	2098.83	2415.32	2298.0	463.06	2170.08	1529.63	1750.4	2763.95	825.56	2546.51	809.59	2325.17	1540.12	1410.59	1848.67	379.33	1839.91	2471.1	1285.2	1282.79	744.77	1071.83	1932.9	2206.23	1404.3	1055.14	2490.53	1412.81	2096.79	
1699.55		1118.21	1352.74	1157.36	552.24	2851.4	972.28	2573.68	1824.22	2632.05	1580.83	1022.1	1561.12	1234.6	2436.58	1266.94	1973.03	1871.17	1195.76	617.45	853.99	349.48	2191.6	1348.82	2499.33	1244.43	1145.97	2041.42	331.31	767.32	2332.33	1803.44	1449.67	76.3	1685.68	2233.04	1090.56	1052.91	1477.54	713.74	1111.33	1299.14	2432.89	1892.52	1903.02	782.09	2417.85	1872.63	628.01	2577.45	2658.87	1714.82	499.38	1051.69	1195.89	1661.64	1508.41	988.71	1107.68	2336.08	585.85	2466.29	1171.05	708.45	2254.15	893.66	208.66	1335.15	679.22	1019.15	777.57	1124.98	1649.05	715.36	772.81	503.75	2638.75	1107.71	476.16	1919.62	2751.47	630.13	2564.83	1484.65	922.64	2739.21	1292.01	667.2	1376.11	616.37	1873.59	1640.5	733.88	717.86	2505.53	2024.97	1314.15	1783.41	1762.13	1212.45	389.01	2451.42	494.66	1885.25	1117.8	930.58	997.1	1335.06	1177.02	715.49	909.93	822.43	1138.67	606.17	1286.98	2335.34	1071.46	1156.06	2290.9	755.46	672.49	717.28	857.95	1901.65	888.96	2585.51	2556.41	1064.96	889.21	894.43	2269.04	743.27	695.07	2535.1	1861.23	2046.2	579.83	830.12	992.5	1774.13	2126.97	1565.39	2125.79	1253.17	2586.15	668.24	1293.1	518.05	2656.43	
1845.72	1118.21		975.98	2130.1	1544.7	2533.55	2043.0	2141.06	1075.21	1769.97	1413.48	1545.48	863.5	1626.26	1842.21	2349.19	1569.41	1199.55	1918.96	806.18	1938.24	1073.17	2012.41	2439.12	2165.14	1453.48	2233.96	1672.34	792.88	1575.45	2107.11	886.24	2555.49	1061.81	849.46	1783.86	2162.3	2145.18	1477.6	414.4	1962.78	2229.64	1744.62	992.46	1688.24	1640.84	1604.54	1466.58	1655.56	1940.9	1793.88	1841.09	1545.33	1865.31	2231.69	809.38	2626.46	130.14	790.21	1996.12	1695.83	1818.61	1897.65	1347.24	1555.23	1651.38	910.62	415.33	1220.7	2081.9	1863.5	17.72	763.47	1780.78	1326.64	960.13	2221.6	1674.57	1148.56	982.95	2312.92	1739.89	1729.07	1690.27	1878.26	1747.92	2396.87	483.39	2477.28	1383.15	1141.99	1195.98	1499.69	1570.66	1565.08	1055.96	2430.78	1100.1	837.26	2279.17	1057.17	1678.61	1375.45	1243.04	2171.69	1303.23	2112.58	2453.26	1809.53	1247.7	1991.02	1938.19	2242.24	954.71	1061.8	2178.08	114.54	2173.4	1768.68	1261.8	729.04	1481.37	1935.48	1763.19	2001.29	1948.36	1776.72	1657.25	1382.45	1278.4	2005.0	1754.08	1728.86	1954.22	851.0	2046.54	1695.64	1204.92	561.1	1082.81	1851.29	1025.9	1134.0	2368.56	2031.7	1311.71	2400.61	1492.16	1733.4	
942.33	1352.74	975.98		2508.49	1433.78	1607.4	1918.81	1262.13	579.62	1362.83	444.64	994.98	383.59	933.69	1083.99	2206.57	654.17	560.14	1407.21	1486.94	1862.62	1552.05	1039.96	2307.95	1237.24	689.26	2432.34	743.34	1102.67	1263.86	1143.82	757.53	2467.16	1349.97	592.7	905.4	2399.9	2337.45	564.68	921.83	1563.03	2651.87	1090.0	787.9	714.55	1350.59	1130.76	547.73	1977.89	1225.17	1389.95	929.22	1500.95	1454.0	2528.0	602.89	2653.61	950.27	257.62	1065.81	1869.68	1115.72	1394.86	1011.79	921.1	1260.39	1230.65	665.02	1842.55	2339.62	2087.98	993.31	642.23	1699.68	1958.81	871.11	1335.62	1105.96	1008.26	854.91	1441.4	1909.84	1281.58	846.72	2275.3	1597.2	2534.55	1135.04	2377.63	1900.16	602.1	290.39	2028.49	2045.44	1323.02	974.0	2496.82	497.0	746.55	2521.72	1564.17	1138.72	1234.55	557.61	1992.66	766.16	2125.18	2484.28	1250.02	1879.25	1898.57	1975.44	2177.65	775.43	163.64	1205.34	1070.08	2497.22	944.52	1909.27	1448.15	2009.72	2172.8	787.55	2134.05	1233.23	1241.39	2301.38	896.4	1989.59	1048.67	2093.92	1610.23	1183.81	938.19	1080.84	1771.31	1909.06	473.24	496.03	893.79	240.95	1083.61	2353.34	1238.63	1005.74	2527.07	1382.62	1439.06	
2709.41	1157.36	2130.1	2508.49		1273.03	3953.06	1166.14	3707.46	2974.3	3776.69	2701.14	1966.85	2710.96	2201.19	3591.32	1237.05	3115.97	3027.16	1918.14	1350.24	1077.97	1059.46	3279.11	1236.47	3615.01	2293.78	448.66	3177.5	1448.88	1585.05	3426.33	2924.64	1183.63	1170.15	2820.84	3376.13	351.14	460.9	2565.45	1787.54	1710.29	170.07	3590.22	3019.94	3014.74	1534.32	3567.68	3018.41	530.65	3733.65	3803.23	2731.49	1165.63	1726.28	218.93	2793.16	967.14	2014.26	2265.02	3457.91	707.49	3623.2	1898.47	1694.66	3410.99	1700.56	1309.96	2435.89	974.1	315.57	499.27	2130.51	2773.33	1127.16	910.04	1644.45	3768.38	1996.55	1551.51	3038.2	3882.95	683.06	3712.94	2497.14	251.92	3848.81	629.0	1649.01	1179.65	761.16	3025.93	2794.61	667.59	569.3	3631.3	3135.41	799.07	2938.04	2880.27	355.51	1073.06	3605.39	1406.84	3042.24	1285.04	1980.12	872.28	884.14	1992.12	964.17	1104.7	847.58	1047.2	1745.24	2433.88	3408.84	2046.74	140.03	3441.38	973.28	1435.41	682.45	428.55	2994.14	625.87	3741.71	3710.41	766.06	1893.21	1062.82	3375.86	414.57	1212.4	3688.22	2952.75	3082.29	878.21	1089.54	2139.81	2928.16	3242.22	2722.73	3229.25	961.43	3736.5	1669.24	655.08	1296.94	3788.4	
1440.0	552.24	1544.7	1433.78	1273.03		2712.11	513.08	2509.13	1989.42	2792.94	1504.48	695.66	1741.32	929.75	2464.23	819.7	1951.19	1993.05	704.16	1169.28	433.85	880.03	2034.45	916.18	2391.4	1046.87	1054.98	1994.23	783.99	314.23	2184.6	2054.35	1057.04	628.07	1910.18	2205.06	1052.49	964.75	1336.25	1132.76	572.15	1440.79	2509.59	2125.94	1797.05	279.71	2563.08	1865.33	810.06	2616.9	2820.13	1463.28	109.02	531.74	1212.44	1896.83	1220.02	1416.72	1243.6	2244.42	566.29	2519.29	680.69	455.48	2350.38	437.38	719.98	1650.71	1178.61	1015.83	778.12	1555.52	1901.58	267.87	1249.86	632.22	2561.92	725.28	446.43	2170.37	2678.04	590.34	2713.9	1230.47	1107.91	2979.83	1121.22	1159.74	970.76	1041.15	2024.34	1689.07	1125.38	1056.0	2721.1	2286.27	1065.89	1922.41	2021.15	1165.57	922.6	2572.12	201.16	1991.1	628.99	751.47	692.35	1050.56	738.22	1210.42	476.45	552.48	753.12	695.84	1313.59	2154.24	1526.08	1209.77	2294.03	1250.4	1221.1	1114.26	858.0	1757.82	744.47	2624.74	2674.23	1476.2	643.13	1399.37	2146.07	908.01	189.91	2548.54	2159.1	1816.02	400.05	1345.62	1233.44	1918.21	2024.01	1672.85	2394.84	921.36	2582.43	444.5	1110.04	55.0	2853.72	
1315.03	2851.4	2533.55	1607.4	3953.06	2712.11		3062.67	438.62	1545.72	1495.0	1272.77	2031.81	1684.49	1809.05	860.47	3271.88	966.03	1390.72	2269.01	3089.0	3063.38	3111.93	677.69	3366.24	370.74	1665.98	3765.36	867.17	2666.01	2426.45	527.77	1856.48	3543.33	2869.94	1779.28	759.68	3764.11	3676.35	1387.63	2528.96	2509.46	4112.58	1073.53	1780.62	948.78	2499.82	1387.35	1071.19	3436.01	893.04	1503.28	1285.59	2811.25	2428.92	3920.11	1820.44	3817.87	2535.39	1857.37	542.12	3255.86	964.58	2275.23	2265.31	1182.9	2342.34	2778.37	2142.71	3423.87	3723.35	3477.39	2549.39	1882.14	2932.59	3538.61	2348.76	359.77	2049.18	2406.65	1849.29	340.65	3287.75	1422.1	1500.48	3746.79	1951.05	3809.72	2742.12	3456.75	3448.47	1482.71	1344.36	3573.75	3568.99	1745.3	1896.35	3716.24	1477.74	1891.19	3877.66	3130.84	1273.84	2552.09	1335.91	3064.93	1974.2	3352.57	3674.12	2122.62	3461.56	3076.49	3248.38	3326.49	2246.86	1603.27	575.01	2640.01	3909.56	820.31	3494.29	3053.92	3555.83	3560.68	958.95	3455.0	891.69	1267.11	3874.17	2070.29	3585.52	582.49	3550.09	2833.81	778.58	2047.73	946.85	3108.83	3505.29	2080.39	1496.59	728.96	1507.9	1941.09	3519.48	692.87	2287.06	3793.96	2676.9	1690.01	
1751.11	972.28	2043.0	1918.81	1166.14	513.08	3062.67		2909.73	2485.58	3281.64	1928.99	1044.77	2242.91	1255.63	2910.44	307.66	2385.94	2478.68	829.07	1566.43	127.77	1229.97	2391.34	403.1	2769.38	1436.37	797.6	2415.87	1261.41	671.7	2542.85	2563.83	549.65	1045.67	2417.23	2630.9	847.31	734.09	1735.82	1628.76	591.34	1331.99	2974.4	2633.04	2194.07	586.9	3049.19	2308.71	888.68	3065.88	3308.76	1779.28	497.68	645.78	1024.24	2405.27	762.27	1913.64	1744.8	2635.71	609.54	2975.05	815.55	908.87	2823.83	727.25	1171.22	2163.66	1457.57	854.06	707.68	2052.82	2411.8	262.61	1495.02	1145.21	2954.57	1013.57	957.49	2679.4	3070.42	595.42	3199.92	1563.02	1098.57	3484.85	773.63	1629.35	461.24	1260.41	2516.89	2158.09	1299.52	1194.72	3222.63	2796.06	656.21	2413.33	2531.53	926.7	1272.11	3050.98	709.46	2472.28	155.54	1185.69	320.76	611.58	950.59	1480.8	74.24	326.91	268.17	1205.72	1786.69	2490.36	2015.61	1056.9	2732.48	1517.07	1632.36	1295.37	752.19	2134.0	540.27	3073.53	3151.28	1625.74	1059.42	1667.58	2521.37	935.73	323.21	2987.31	2671.73	2128.58	458.05	1633.05	1745.82	2410.4	2414.99	2159.64	2905.11	459.03	3012.81	913.07	752.93	568.07	3350.93	
1226.93	2573.68	2141.06	1262.13	3707.46	2509.13	438.62	2909.73		1120.17	1089.69	1009.36	1864.98	1280.6	1663.88	426.82	3147.31	608.89	968.54	2165.59	2747.27	2893.0	2805.59	585.92	3245.74	220.52	1475.07	3561.64	532.3	2355.54	2248.0	465.03	1424.99	3420.74	2582.95	1357.0	360.88	3548.94	3469.57	1177.11	2177.18	2395.28	3860.84	644.9	1345.96	716.07	2328.19	959.69	714.66	3180.99	487.17	1101.36	1194.72	2600.63	2303.1	3695.64	1398.83	3671.94	2154.42	1519.18	279.66	3026.98	538.05	2167.11	2053.88	744.52	2182.62	2477.11	1739.5	3103.48	3500.44	3249.9	2156.19	1459.8	2749.25	3219.56	2071.27	82.66	1908.7	2157.29	1413.26	179.43	3062.29	1009.67	1368.85	3488.21	1543.9	3626.85	2389.62	3331.7	3150.19	1055.39	979.78	3277.65	3284.68	1322.3	1458.09	3551.0	1060.29	1461.42	3666.62	2820.33	849.15	2332.45	916.01	2933.49	1757.75	3179.3	3517.96	2006.66	3140.41	2913.46	3058.51	3177.59	1968.95	1291.02	597.0	2250.68	3676.99	388.03	3170.9	2705.05	3259.18	3334.64	783.53	3251.96	487.88	855.64	3560.87	1869.76	3251.38	421.38	3296.8	2650.92	359.35	1612.76	923.82	2894.98	3170.85	1726.48	1078.97	496.28	1125.2	1502.55	3368.55	286.12	2068.69	3613.75	2468.0	1282.34	
1379.02	1824.22	1075.21	579.62	2974.3	1989.42	1545.72	2485.58	1120.17		811.37	838.12	1572.19	263.37	1491.52	774.03	2778.11	663.13	157.89	1981.64	1796.71	2422.25	1952.85	1190.01	2879.16	1199.31	1241.61	2948.48	767.07	1527.04	1839.32	1228.34	321.85	3035.11	1804.66	239.04	790.68	2905.53	2853.53	1040.86	1233.36	2142.41	3105.02	671.26	278.87	925.43	1925.69	593.71	597.05	2449.91	865.79	838.47	1356.74	2047.28	2033.45	3019.53	281.44	3207.37	1120.62	747.57	1048.15	2380.09	743.5	1970.25	1584.12	481.09	1839.66	1665.25	659.89	2195.58	2838.78	2590.91	1087.91	340.92	2257.14	2310.45	1388.57	1202.82	1679.55	1550.17	358.18	1278.86	2422.31	740.86	1346.63	2730.4	1017.92	3066.14	1427.59	2946.14	2300.64	67.62	454.96	2428.01	2466.86	743.59	457.18	3042.23	107.52	349.5	3028.01	1954.65	636.23	1788.36	215.35	2565.75	1345.75	2675.08	3035.7	1821.79	2228.86	2461.08	2518.34	2740.02	1304.2	734.8	1341.5	1189.47	2980.1	732.61	2252.09	1736.52	2408.9	2674.18	1048.36	2660.35	873.22	740.6	2654.81	1475.87	2301.34	1113.5	2563.57	2171.32	886.14	528.55	1376.75	2301.79	2222.73	834.5	96.6	982.46	347.31	554.07	2910.67	968.0	1574.64	3060.95	1936.48	865.36	
1953.65	2632.05	1769.97	1362.83	3776.69	2792.94	1495.0	3281.64	1089.69	811.37		1472.92	2321.99	1072.39	2201.3	684.08	3568.28	1078.49	803.33	2715.36	2550.65	3223.92	2741.05	1504.9	3669.77	1283.59	1954.8	3759.76	1129.0	2327.82	2623.78	1456.7	884.96	3829.87	2609.49	960.01	980.3	3716.09	3664.83	1696.99	2009.5	2898.96	3903.06	471.31	779.94	1389.04	2710.69	235.98	1096.13	3255.49	604.75	27.2	1924.61	2854.52	2791.67	3827.93	991.58	4012.66	1847.11	1556.54	1218.57	3191.29	562.91	2707.33	2374.15	510.58	2610.48	2466.8	1378.74	2960.41	3648.61	3401.42	1778.34	1021.97	3059.98	3072.62	2199.39	1152.18	2415.87	2357.73	788.24	1155.14	3233.58	94.64	1991.53	3530.49	456.13	3877.03	2187.69	3740.27	3084.47	769.91	1144.29	3210.1	3257.13	297.48	734.8	3850.56	870.6	933.64	3838.56	2739.13	281.57	2592.45	814.41	3353.59	2116.24	3481.71	3841.94	2550.51	2991.48	3260.8	3327.01	3539.93	2113.55	1500.4	1599.11	1881.66	3786.81	835.15	3011.0	2482.2	3191.05	3484.46	1517.23	3471.53	605.19	235.75	3412.67	2247.26	3043.12	1357.19	3368.24	2971.89	730.44	951.32	1804.67	3112.47	2967.3	1639.76	875.36	1303.77	1122.03	695.63	3713.98	807.7	2368.57	3871.6	2740.76	195.16	
542.65	1580.83	1413.48	444.64	2701.14	1504.48	1272.77	1928.99	1009.36	838.12	1472.92		896.88	752.93	738.45	987.49	2186.61	458.42	734.99	1259.37	1839.91	1900.93	1840.43	636.97	2287.3	918.66	504.73	2554.08	490.07	1397.03	1258.61	764.2	1107.42	2458.2	1597.53	951.76	703.08	2539.87	2461.58	224.2	1303.32	1463.72	2856.49	1082.75	1104.19	324.72	1342.26	1239.65	393.29	2177.04	1144.41	1498.18	522.25	1593.46	1361.47	2686.31	974.92	2689.23	1376.54	639.61	757.45	2017.67	1063.88	1254.34	1049.14	967.65	1209.83	1506.37	1107.51	2156.52	2491.08	2240.6	1431.02	1026.64	1751.32	2270.37	1077.31	1067.7	969.15	1149.72	1181.12	1182.79	2052.93	1380.61	523.28	2486.04	1802.76	2625.05	1512.43	2368.1	2175.72	824.62	383.19	2300.98	2297.61	1520.57	1290.53	2557.46	731.32	1110.62	2657.87	1860.42	1204.79	1324.18	697.2	1969.95	754.05	2183.62	2529.75	1093.46	2194.47	1925.73	2056.05	2196.86	975.09	361.81	796.91	1502.41	2668.23	805.03	2228.23	1813.78	2283.05	2325.3	358.42	2245.02	1151.8	1292.89	2603.36	872.81	2326.01	690.61	2292.37	1653.98	1059.22	1309.08	636.3	1886.61	2246.41	878.93	741.62	546.16	531.92	1391.33	2384.73	1084.11	1061.64	2613.02	1461.73	1597.37	
744.45	1022.1	1545.48	994.98	1966.85	695.66	2031.81	1044.77	1864.98	1572.19	2321.99	896.88		1369.17	234.34	1884.33	1291.03	1355.13	1527.93	415.62	1532.81	1033.67	1363.74	1355.55	1391.35	1727.14	394.62	1737.63	1376.97	1036.39	395.38	1506.93	1734.05	1563.46	1075.89	1571.48	1592.81	1743.69	1650.66	693.54	1211.0	577.04	2133.55	1969.3	1777.2	1149.52	468.36	2086.04	1286.42	1483.29	2041.18	2348.5	768.16	801.62	470.47	1906.72	1572.99	1806.95	1442.28	916.1	1591.14	1259.35	1958.09	401.38	313.64	1835.51	317.69	1069.72	1467.0	1699.05	1710.47	1473.67	1561.35	1599.26	900.99	1794.89	662.87	1910.08	129.54	561.71	1839.51	2026.03	1285.33	2234.07	536.96	1790.13	2589.83	1778.09	1348.15	1473.58	1626.71	1587.81	1177.71	1733.47	1689.01	2312.94	1959.67	1690.19	1482.23	1714.46	1853.5	1399.15	2070.18	575.7	1509.34	1074.84	253.58	1322.41	1654.0	271.98	1735.96	1050.55	1217.37	1312.61	617.88	837.43	1466.47	1578.18	1905.41	1701.39	1775.6	1549.98	1718.9	1553.64	1090.81	1428.42	2048.6	2165.24	2077.3	167.07	1909.75	1479.33	1588.94	802.31	1954.86	1891.04	1121.45	1095.47	1840.64	1041.78	1484.07	1370.31	1225.99	2070.46	1503.67	1975.27	354.46	1762.68	669.99	2419.16	
1288.5	1561.12	863.5	383.59	2710.96	1741.32	1684.49	2242.91	1280.6	263.37	1072.39	752.93	1369.17		1317.19	985.09	2539.24	736.05	345.08	1783.78	1547.11	2175.03	1692.06	1232.97	2639.78	1321.41	1072.63	2687.83	843.1	1264.0	1608.08	1300.76	374.34	2792.47	1541.29	209.77	927.29	2643.7	2592.95	921.91	978.46	1928.67	2842.0	914.28	408.03	929.89	1693.55	857.03	642.91	2186.57	1095.54	1099.37	1270.98	1795.11	1819.45	2756.64	224.9	2956.06	890.71	498.21	1157.11	2119.24	974.34	1770.41	1350.03	725.0	1618.6	1402.08	459.2	1941.0	2576.44	2329.04	878.03	273.79	2009.17	2056.43	1131.72	1361.9	1484.02	1298.57	472.13	1450.62	2161.67	1003.72	1217.73	2467.22	1243.54	2808.09	1177.83	2704.1	2040.58	317.24	404.11	2168.25	2205.24	979.99	591.8	2787.92	245.33	366.56	2766.18	1694.81	897.39	1540.19	382.52	2329.05	1130.77	2422.87	2783.59	1629.06	1974.89	2215.49	2263.95	2493.82	1050.56	547.22	1394.83	975.2	2716.89	905.25	1999.23	1490.31	2149.15	2412.12	1036.36	2401.64	1103.31	1002.15	2401.41	1258.2	2053.91	1190.5	2300.2	1925.59	1096.35	562.58	1358.3	2044.49	1974.64	571.2	230.53	1043.79	225.27	702.1	2661.39	1171.09	1337.18	2803.42	1687.73	1114.35	
