n: 100
deposito: 51
clusters: 20
factor: 1

xcoord[n]:
3140.0
556.0
3675.0
1182.0
3595.0
962.0
2030.0
3507.0
2642.0
3438.0
3858.0
2937.0
376.0
839.0
706.0
749.0
298.0
694.0
387.0
2801.0
3133.0
1517.0
1538.0
844.0
2639.0
3123.0
2489.0
3834.0
3417.0
2938.0
71.0
3245.0
731.0
2312.0
2426.0
380.0
2310.0
2830.0
3829.0
3684.0
171.0
627.0
1490.0
61.0
422.0
2698.0
2372.0
177.0
3084.0
1213.0
3.0
1782.0
3896.0
1829.0
1286.0
3017.0
2132.0
2000.0
3317.0
1729.0
2408.0
3292.0
193.0
782.0
2503.0
1697.0
3821.0
3370.0
3162.0
3938.0
2741.0
2330.0
3918.0
1794.0
2929.0
3453.0
896.0
399.0
2614.0
2800.0
2630.0
563.0
1090.0
2009.0
3876.0
3084.0
1526.0
1612.0
1423.0
3058.0
3782.0
347.0
3904.0
2191.0
3220.0
468.0
3611.0
3114.0
3515.0
3060.0

ycoord[n]:
1401.0
1056.0
1522.0
1853.0
111.0
1895.0
1186.0
1851.0
1269.0
901.0
1472.0
1568.0
1018.0
1355.0
1925.0
920.0
615.0
552.0
190.0
695.0
1143.0
266.0
224.0
520.0
1239.0
217.0
1520.0
1827.0
1808.0
543.0
1323.0
1828.0
1741.0
1270.0
1851.0
478.0
635.0
775.0
513.0
445.0
514.0
1261.0
1123.0
81.0
542.0
1221.0
127.0
1390.0
748.0
910.0
1817.0
995.0
742.0
812.0
550.0
108.0
1432.0
1110.0
1966.0
1498.0
1747.0
152.0
1210.0
1462.0
352.0
1924.0
147.0
791.0
367.0
516.0
1583.0
741.0
1088.0
1589.0
485.0
1998.0
705.0
850.0
195.0
653.0
20.0
1513.0
1652.0
1163.0
1165.0
774.0
1612.0
328.0
1322.0
1276.0
1865.0
252.0
1444.0
1579.0
1454.0
319.0
1968.0
1629.0
1892.0
155.0

color[n]:
#a847c0
#94844
#e034dc
#e373b7
#9ef6fd
#e373b7
#64d54c
#44570c
#48fb61
#abca75
#e034dc
#a847c0
#94844
#19923e
#19923e
#94844
#bec70b
#94844
#95f307
#abca75
#a847c0
#73bb09
#73bb09
#94844
#48fb61
#3e7239
#48fb61
#e034dc
#44570c
#abca75
#5011b2
#44570c
#19923e
#48fb61
#48fb61
#bec70b
#132975
#abca75
#9ef6fd
#9ef6fd
#bec70b
#19923e
#64d54c
#95f307
#bec70b
#48fb61
#635803
#5011b2
#abca75
#73bb09
#427075
#64d54c
#ca640f
#64d54c
#73bb09
#3e7239
#48fb61
#64d54c
#44570c
#78ee74
#48fb61
#3e7239
#5011b2
#19923e
#635803
#78ee74
#9ef6fd
#abca75
#3e7239
#9ef6fd
#48fb61
#132975
#ca640f
#78ee74
#abca75
#44570c
#94844
#bec70b
#635803
#abca75
#635803
#19923e
#e373b7
#64d54c
#ca640f
#abca75
#78ee74
#73bb09
#78ee74
#a847c0
#e034dc
#95f307
#ca640f
#48fb61
#a847c0
#bec70b
#e034dc
#a847c0
#44570c
#3e7239

Np[1]: 19 44 92  ;
Np[2]: 3 11 28 91 97  ;
Np[3]: 47 65 79 81  ;
Np[4]: 4 6 83  ;
Np[5]: 5 39 40 67 70  ;
Np[6]: 9 25 27 34 35 46 57 61 71 94  ;
Np[7]: 31 48 63  ;
Np[8]: 22 23 50 55 88  ;
Np[9]: 10 20 30 38 49 68 75 80 86  ;
Np[10]: 53 73 85 93  ;
Np[11]: 1 12 21 90 95 98  ;
Np[12]: 60 66 74 87 89  ;
Np[13]: 2 13 16 18 24 77  ;
Np[14]: 26 56 62 69 100  ;
Np[15]: 37 72  ;
Np[16]: 7 43 52 54 58 84  ;
Np[17]: 17 36 41 45 78 96  ;
Np[18]: 14 15 33 42 64 82  ;
Np[19]: 8 29 32 59 76 99  ;
Np[20]: 51  ;


c[n,n]:
	2606.93	548.51	2009.49	1367.89	2233.32	1130.63	580.68	515.2	582.07	721.5	262.86	2790.41	2301.46	2489.77	2438.9	2948.69	2589.15	3007.58	783.17	258.09	1980.49	1987.9	2459.22	526.54	1184.12	661.79	814.32	492.32	881.46	3069.99	439.72	2432.88	838.3	843.98	2910.25	1129.45	698.55	1123.95	1099.94	3098.67	2516.9	1673.26	3350.02	2850.51	477.25	1487.58	2963.02	655.4	1988.57	3164.46	1417.39	1002.9	1437.23	2039.98	1298.84	1008.48	1176.55	592.08	1414.33	809.65	1258.22	2953.18	2358.79	1227.26	1534.85	1426.98	651.92	1034.23	1191.65	438.55	1044.84	838.6	1359.07	939.99	674.08	2349.46	2795.83	1315.72	821.65	1472.16	2579.43	2065.31	1155.77	772.91	629.5	1627.73	1867.11	1718.82	149.5	792.12	3020.11	765.21	965.55	95.96	2882.76	737.11	229.48	617.82	1248.57	
2606.93		3153.62	1013.45	3182.54	932.07	1479.72	3056.21	2096.85	2886.17	3328.1	2435.43	183.97	411.69	881.85	236.1	510.93	522.55	882.34	2273.84	2578.47	1244.03	1287.07	608.47	2091.02	2700.63	1987.91	3367.45	2958.18	2436.62	553.64	2797.62	707.0	1768.99	2031.98	604.2	1803.82	2291.3	3317.74	3187.12	664.82	216.95	936.4	1093.46	531.18	2148.35	2039.83	505.17	2546.69	673.03	940.71	1227.52	3354.73	1296.17	888.22	2637.28	1620.23	1445.01	2907.1	1253.51	1976.71	2881.48	394.32	464.66	2070.37	1433.63	3389.17	2826.45	2695.54	3424.84	2247.66	1801.75	3362.15	1347.86	2440.73	3046.3	488.67	259.01	2230.85	2279.9	2318.36	457.05	800.23	1456.93	3321.79	2543.68	1118.05	1282.62	906.89	2511.65	3325.89	830.72	3370.41	1716.61	2693.57	742.24	3188.22	2621.39	3074.83	2661.17	
548.51	3153.62		2514.88	1413.27	2738.52	1678.96	369.41	1063.53	664.69	189.71	739.43	3337.28	2840.91	2996.23	2987.29	3496.68	3134.85	3547.56	1203.25	661.37	2496.9	2500.31	3003.09	1073.96	1416.94	1186.0	343.96	385.18	1225.4	3609.49	527.77	2952.13	1386.1	1291.6	3456.44	1627.88	1127.84	1020.68	1077.04	3646.1	3059.15	2221.13	3890.69	3397.41	1022.32	1908.88	3500.49	973.84	2536.92	3683.83	1964.99	810.7	1977.83	2579.17	1559.6	1545.62	1724.93	570.35	1946.15	1286.82	1422.53	3495.95	2893.62	1656.04	2018.44	1382.73	792.08	1263.8	1039.81	935.99	1555.31	497.4	1882.19	1277.45	525.22	2896.61	3344.21	1699.01	1233.2	1829.76	3112.01	2588.27	1704.24	409.7	953.3	2150.88	2383.61	2260.86	664.23	359.3	3562.09	241.92	1485.09	460.05	3425.21	450.57	571.11	403.11	1498.97	
2009.49	1013.45	2514.88		2976.09	223.97	1078.89	2325.0	1572.47	2448.64	2702.99	1777.99	1160.54	604.69	481.41	1028.58	1521.22	1389.51	1843.26	1990.51	2076.17	1621.97	1667.45	1375.18	1581.09	2538.5	1348.75	2652.13	2235.45	2190.81	1230.94	2063.15	464.7	1271.53	1244.0	1591.8	1660.09	1969.26	2966.85	2870.97	1677.81	811.47	792.32	2096.81	1515.36	1642.46	2096.47	1106.52	2199.69	943.51	1179.55	1046.98	2932.6	1225.68	1307.14	2532.24	1039.11	1105.07	2137.99	652.1	1230.57	2710.26	1179.65	559.36	1999.51	519.87	3142.41	2432.12	2475.6	3063.19	1582.21	1598.26	2840.94	666.51	2218.88	2275.62	1183.09	1272.44	2190.8	2014.43	2335.94	706.23	221.05	1077.05	2780.46	2186.74	420.02	1584.46	583.13	1962.73	2600.03	1805.66	2752.56	1045.54	2076.69	1692.03	2431.72	1944.94	2333.33	2531.82	
1367.89	3182.54	1413.27	2976.09		3180.46	1898.64	1742.22	1499.72	805.45	1386.18	1598.69	3344.34	3023.75	3411.29	2958.75	3335.3	2934.33	3208.97	985.64	1130.69	2083.77	2060.1	2781.24	1478.62	483.76	1791.23	1732.56	1706.31	786.3	3726.6	1752.31	3295.36	1728.98	2096.23	3235.88	1387.73	1012.98	465.15	345.65	3447.63	3183.01	2335.63	3534.13	3202.14	1427.13	1223.1	3649.46	816.63	2512.43	3976.54	2017.03	699.12	1900.04	2350.36	578.01	1971.14	1882.03	1875.72	2325.02	2021.25	305.76	3575.11	3120.6	1118.28	2624.76	228.85	716.26	503.02	530.73	1701.79	1413.2	1029.01	2329.83	763.83	1892.34	2763.59	3280.33	984.59	962.18	969.28	3340.45	2941.04	1903.18	1090.81	837.07	2556.12	1994.84	2486.79	1282.81	1763.94	3251.06	1368.35	2031.31	1394.37	3133.91	1857.07	1592.38	1782.8	536.81	
2233.32	932.07	2738.52	223.97	3180.46		1281.91	2545.38	1792.84	2668.07	2926.73	2001.89	1054.76	553.83	257.75	997.99	1441.98	1369.48	1799.35	2195.89	2297.55	1720.95	1767.49	1380.05	1800.74	2735.98	1572.37	2872.8	2456.54	2394.26	1058.8	2283.98	277.63	1487.66	1464.66	1531.87	1845.18	2178.03	3182.71	3084.12	1591.49	717.06	935.29	2025.44	1456.78	1862.25	2261.4	933.41	2412.16	1016.48	962.17	1217.54	3152.42	1387.29	1383.47	2723.31	1258.28	1301.41	2356.07	863.65	1453.55	2909.8	1029.85	468.92	2180.72	735.57	3351.03	2649.01	2678.58	3279.97	1806.15	1789.73	3064.18	886.49	2420.16	2493.13	1191.83	1187.01	2370.46	2218.29	2509.55	552.38	274.65	1277.51	3004.05	2399.9	631.02	1696.46	735.43	2185.49	2820.16	1754.33	2976.37	1268.97	2300.66	1651.61	2650.01	2168.38	2553.0	2725.66	
1130.63	1479.72	1678.96	1078.89	1898.64	1281.91		1619.8	617.6	1436.55	1850.24	984.16	1662.51	1202.93	1516.28	1308.33	1823.7	1478.8	1921.32	914.07	1103.84	1053.36	1080.51	1360.2	611.3	1460.69	567.66	1914.5	1520.08	1112.62	1963.78	1374.19	1412.6	294.24	773.98	1795.48	618.06	899.4	1920.76	1812.4	1976.73	1405.0	543.66	2257.87	1732.17	668.92	1112.85	1864.2	1141.39	862.36	2122.94	313.03	1918.1	424.59	978.79	1461.59	266.31	81.71	1504.91	433.53	676.47	1631.5	1837.16	1278.15	958.79	809.65	2070.56	1397.01	1397.21	2022.22	814.33	536.68	1890.54	467.02	1140.0	1638.38	1231.79	1665.25	1150.28	936.48	1311.32	1503.0	1049.17	31.14	1846.12	1131.66	659.92	954.4	622.05	1031.93	1878.97	1924.8	1891.68	424.7	1219.8	1786.49	1763.83	1171.03	1644.28	1457.35	
580.68	3056.21	369.41	2325.0	1742.22	2545.38	1619.8		1042.57	952.5	516.57	636.39	3239.92	2713.71	2801.98	2910.9	3438.8	3098.45	3534.59	1354.54	800.71	2544.08	2554.23	2977.1	1062.06	1678.51	1070.46	327.88	99.74	1426.4	3476.33	263.01	2778.18	1328.75	1081.0	3415.15	1706.3	1271.26	1376.2	1417.1	3593.95	2939.81	2144.36	3873.99	3351.22	1025.37	2064.07	3361.76	1181.33	2479.5	3504.16	1925.71	1175.25	1973.63	2573.99	1810.57	1437.42	1679.32	222.09	1812.7	1103.91	1712.55	3375.42	2752.63	1804.17	1811.47	1732.69	1068.82	1523.58	1402.85	811.53	1617.85	866.65	1732.92	1483.25	156.6	2851.43	3265.22	1881.43	1391.06	2030.19	2963.34	2425.18	1648.44	778.95	1157.09	1995.37	2431.16	2150.09	729.54	275.36	3541.53	568.56	1343.82	489.88	3403.31	156.54	451.37	41.77	1753.92	
515.2	2096.85	1063.53	1572.47	1499.72	1792.84	617.6	1042.57		876.95	1232.83	420.03	2279.86	1805.05	2044.12	1924.9	2433.53	2075.76	2499.85	595.61	506.91	1507.19	1520.15	1947.77	30.15	1156.75	293.96	1316.14	944.01	784.02	2571.57	822.25	1968.43	330.0	620.79	2396.31	715.67	528.56	1407.3	1328.44	2583.77	2015.02	1161.21	2841.29	2336.01	73.76	1173.48	2467.97	683.23	1473.4	2695.3	902.59	1360.24	932.64	1534.83	1220.06	535.41	661.4	970.28	941.28	532.2	1292.36	2449.71	1869.99	927.48	1149.8	1627.55	870.9	1041.16	1498.87	329.24	613.29	1288.77	906.37	834.88	1090.49	1834.83	2281.8	1074.36	635.94	1249.06	2093.27	1598.56	641.81	1238.37	663.62	1167.52	1395.13	1220.15	416.06	1286.4	2510.24	1274.08	547.27	606.88	2372.5	1194.81	593.62	1072.5	1189.84	
582.07	2886.17	664.69	2448.64	805.45	2668.07	1436.55	952.5	876.95		708.83	834.2	3064.23	2638.35	2917.6	2689.07	3153.0	2766.11	3132.75	669.48	389.34	2023.23	2017.01	2621.83	867.55	753.05	1133.03	1007.12	907.24	614.95	3393.34	946.88	2834.33	1184.92	1388.04	3087.12	1158.94	620.92	550.84	518.12	3289.84	2833.96	1960.61	3475.13	3037.29	806.23	1317.36	3297.46	385.65	2225.02	3555.04	1658.67	484.81	1611.46	2180.44	897.83	1409.82	1453.11	1071.85	1810.27	1332.9	763.1	3259.68	2714.6	1084.26	2019.31	845.7	129.32	601.11	631.05	975.16	1119.49	515.14	1782.16	657.37	1097.1	2549.55	3039.43	1085.09	684.51	1195.42	2939.42	2465.18	1452.82	511.41	376.09	2039.92	1913.79	2058.51	533.88	1023.54	3158.4	715.55	1419.4	594.42	3026.49	1080.93	796.84	993.99	836.3	
721.5	3328.1	189.71	2702.99	1386.18	2926.73	1850.24	516.57	1232.83	708.83		925.99	3511.47	3021.27	3184.39	3157.62	3661.7	3295.04	3700.18	1311.86	796.16	2633.39	2634.37	3160.78	1241.07	1454.39	1369.84	355.81	554.42	1307.46	3789.93	708.88	3138.55	1559.14	1481.31	3617.25	1759.79	1242.01	959.44	1041.64	3809.43	3237.88	2393.58	4043.77	3559.63	1186.84	2004.3	3681.91	1059.84	2704.05	3870.41	2130.1	730.99	2133.65	2732.26	1602.43	1726.46	1892.94	732.61	2129.16	1475.85	1436.23	3674.35	3076.02	1757.96	2207.76	1325.52	837.8	1305.93	959.34	1122.5	1693.86	388.66	2067.31	1355.44	663.85	3059.69	3514.48	1782.77	1337.96	1901.65	3295.26	2773.85	1874.64	307.53	1042.25	2336.2	2520.57	2439.62	823.66	400.28	3716.92	53.85	1670.43	638.25	3580.71	554.1	760.38	542.26	1539.9	
262.86	2435.43	739.43	1777.99	1598.69	2001.89	984.16	636.39	420.03	834.2	925.99		2619.39	2108.78	2259.38	2281.94	2805.8	2462.38	2898.51	883.53	468.02	1926.55	1939.98	2340.72	443.9	1363.74	450.56	933.64	536.66	1025.0	2876.45	403.07	2212.77	692.41	584.13	2779.63	1124.11	800.19	1381.55	1348.75	2960.01	2330.31	1513.88	3237.68	2716.23	421.34	1547.81	2765.73	833.07	1845.3	2944.55	1289.32	1265.68	1341.34	1939.62	1462.19	816.41	1042.94	550.28	1210.03	558.46	1459.82	2767.25	2157.61	1291.13	1290.09	1673.53	889.5	1221.89	1452.14	196.57	1025.85	1092.14	1143.19	1083.03	671.68	2215.95	2637.61	1410.48	925.2	1578.15	2374.64	1848.91	1012.53	1021.83	807.49	1411.69	1814.72	1533.86	316.08	895.68	2905.16	974.92	746.08	305.1	2766.94	783.76	187.22	662.62	1418.34	
2790.41	183.97	3337.28	1160.54	3344.34	1054.76	1662.51	3239.92	2279.86	3064.23	3511.47	2619.39		572.66	965.17	385.66	410.48	564.16	828.07	2446.42	2759.83	1366.52	1407.37	683.39	2273.77	2861.4	2171.81	3551.37	3141.94	2605.66	431.34	2981.15	805.45	1952.33	2212.78	540.01	1971.56	2466.0	3489.73	3357.26	544.1	349.36	1118.94	988.53	478.22	2330.86	2185.84	421.88	2721.43	843.94	881.78	1406.19	3530.8	1467.53	1023.29	2793.38	1804.14	1626.6	3090.01	1435.62	2158.81	3041.88	265.24	601.64	2228.83	1601.84	3553.4	3002.59	2861.05	3597.2	2431.55	1973.54	3542.69	1528.65	2608.04	3229.29	606.93	169.57	2384.53	2451.33	2465.06	529.14	954.86	1639.42	3503.09	2718.97	1294.35	1415.56	1090.24	2694.38	3509.74	766.55	3553.63	1899.72	2877.23	705.03	3371.61	2805.35	3258.4	2819.33	
2301.46	411.69	2840.91	604.69	3023.75	553.83	1202.93	2713.71	1805.05	2638.35	3021.27	2108.78	572.66		585.31	444.21	916.67	815.99	1249.61	2070.03	2303.78	1282.81	1329.57	835.01	1803.73	2551.8	1658.23	3031.96	2617.5	2250.59	768.67	2452.05	400.82	1475.45	1662.7	989.85	1637.75	2073.76	3106.29	2986.99	1074.01	231.91	691.1	1492.77	913.71	1863.82	1964.2	662.92	2325.61	581.29	955.16	1009.38	3117.85	1129.14	920.78	2509.72	1295.29	1186.57	2552.22	901.41	1617.23	2732.11	662.07	121.24	1942.91	1029.53	3217.39	2593.08	2524.38	3210.56	1915.62	1612.48	3090.55	983.25	2263.85	2691.92	652.49	669.79	2120.43	2082.86	2233.81	318.03	388.86	1185.65	3042.94	2318.96	733.5	1285.4	584.93	2220.41	2986.86	1207.76	3066.29	1370.43	2383.06	1100.43	2838.97	2291.44	2729.35	2524.45	
2489.77	881.85	2996.23	481.41	3411.29	257.75	1516.28	2801.98	2044.12	2917.6	3184.39	2259.38	965.17	585.31		1005.92	1372.07	1373.05	1764.08	2429.39	2549.87	1846.62	1893.57	1411.76	2051.12	2959.59	1828.42	3129.53	2713.52	2625.21	875.0	2540.85	185.69	1734.43	1721.59	1483.27	2058.38	2415.34	3427.37	3325.49	1509.02	668.68	1121.54	1953.55	1411.86	2112.74	2451.2	752.37	2653.34	1134.58	711.25	1422.21	3402.29	1581.11	1492.32	2939.76	1508.82	1529.27	2611.32	1108.54	1711.28	3135.43	880.0	469.2	2388.21	991.0	3586.71	2895.32	2908.49	3525.78	2063.54	2009.78	3319.26	1138.7	2648.65	2747.97	1234.71	1117.98	2575.53	2450.07	2707.55	436.11	471.15	1509.45	3259.83	2641.91	877.71	1836.1	936.86	2439.9	3076.59	1711.08	3233.97	1524.78	2557.74	1623.54	2905.32	2426.12	2809.19	2945.2	
2438.9	236.1	2987.29	1028.58	2958.75	997.99	1308.33	2910.9	1924.9	2689.07	3157.62	2281.94	385.66	444.21	1005.92		544.45	372.09	814.83	2064.3	2394.41	1008.73	1052.11	411.13	1916.73	2475.9	1840.54	3215.57	2811.9	2221.23	788.73	2656.03	821.2	1601.71	1918.1	575.78	1586.8	2086.05	3106.77	2973.19	706.34	362.17	768.3	1085.02	499.81	1972.11	1806.37	740.33	2341.33	464.11	1166.67	1035.72	3152.03	1085.39	652.13	2408.98	1474.73	1265.35	2772.86	1137.75	1853.7	2656.44	627.09	543.0	1843.68	1380.84	3167.76	2624.17	2475.56	3214.49	2099.44	1591.1	3173.45	1240.8	2222.98	2910.96	260.45	356.93	2000.96	2068.31	2085.22	621.49	807.53	1283.22	3136.58	2339.56	1040.48	1046.53	784.78	2336.28	3176.81	779.63	3198.22	1585.45	2528.04	663.45	3047.84	2468.99	2931.82	2434.33	
2948.69	510.93	3496.68	1521.22	3335.3	1441.98	1823.7	3438.8	2433.53	3153.0	3661.7	2805.8	410.48	916.67	1372.07	544.45		400.98	434.22	2504.28	2883.75	1267.98	1300.18	554.2	2422.74	2852.9	2370.55	3737.95	3339.37	2640.98	743.5	3186.88	1206.39	2117.83	2460.91	159.67	2012.1	2537.05	3532.47	3390.26	162.27	724.95	1295.73	584.23	143.89	2475.33	2130.64	784.39	2789.17	961.38	1237.67	1531.88	3600.24	1543.62	990.14	2765.87	2007.75	1772.52	3307.5	1681.5	2394.48	3029.59	604.19	975.53	2220.63	1915.9	3553.95	3077.04	2874.72	3641.35	2627.79	2035.9	3650.77	1785.13	2634.21	3444.81	604.73	255.79	2353.77	2502.29	2406.71	936.28	1304.85	1796.61	3620.03	2790.53	1581.77	1344.98	1328.71	2838.05	3701.45	366.29	3700.06	2124.32	3040.07	341.34	3578.63	2993.0	3461.19	2800.04	
2589.15	522.55	3134.85	1389.51	2934.33	1369.48	1478.8	3098.45	2075.76	2766.11	3295.04	2462.38	564.16	815.99	1373.05	372.09	400.98		474.65	2111.85	2509.58	871.28	905.49	153.38	2062.76	2451.99	2039.37	3388.99	2998.71	2244.02	991.25	2852.33	1189.58	1770.15	2165.0	322.6	1618.13	2147.61	3135.24	2991.91	524.38	712.16	979.62	789.01	272.18	2112.72	1730.98	984.65	2398.02	630.5	1441.42	1174.73	3207.63	1164.4	592.0	2365.05	1685.9	1420.21	2979.85	1402.19	2089.45	2628.61	827.02	914.25	1820.02	1699.53	3153.12	2686.65	2474.92	3244.2	2291.98	1646.88	3268.25	1511.74	2236.0	3114.96	253.4	419.32	1952.91	2108.42	2007.76	969.89	1169.11	1450.02	3240.51	2400.29	1347.53	944.93	1060.35	2472.38	3355.55	458.7	3331.63	1815.42	2682.22	324.6	3242.52	2648.84	3123.08	2399.08	
3007.58	882.34	3547.56	1843.26	3208.97	1799.35	1921.32	3534.59	2499.85	3132.75	3700.18	2898.51	828.07	1249.61	1764.08	814.83	434.22	474.65		2466.26	2906.67	1132.55	1151.5	563.69	2484.33	2736.13	2487.43	3815.96	3434.94	2575.31	1176.24	3294.12	1588.69	2207.27	2629.91	288.09	1973.82	2512.07	3457.12	3306.85	389.4	1097.56	1444.68	343.74	353.74	2530.55	1986.0	1218.24	2754.12	1095.75	1671.7	1610.61	3552.15	1570.43	968.4	2631.28	2141.87	1856.92	3426.23	1873.99	2551.21	2905.25	1038.29	1331.92	2122.19	2173.21	3434.27	3042.94	2780.64	3565.93	2735.28	2019.62	3643.4	1984.15	2559.06	3559.38	724.09	660.11	2227.01	2457.02	2249.43	1334.66	1622.24	1891.46	3622.67	2759.5	1821.92	1232.75	1534.51	2883.34	3785.72	73.78	3733.87	2276.78	3102.19	152.32	3681.77	3083.38	3561.07	2673.23	
783.17	2273.84	1203.25	1990.51	985.64	2195.89	914.07	1354.54	595.61	669.48	1311.86	883.53	2446.42	2070.03	2429.39	2064.3	2504.28	2111.85	2466.26		557.61	1353.77	1347.97	1964.81	567.61	576.34	882.03	1532.49	1272.09	204.63	2801.3	1216.89	2319.27	754.82	1215.3	2430.71	494.65	85.09	1043.99	917.71	2636.22	2246.47	1379.1	2807.95	2383.91	535.99	711.8	2714.48	287.92	1602.49	3014.58	1062.24	1096.01	979.02	1521.92	625.48	995.35	902.12	1371.75	1339.4	1123.01	732.07	2658.36	2159.78	454.37	1652.05	1157.89	577.04	487.76	1151.0	890.02	473.24	1184.12	1346.58	245.93	1457.02	1905.03	2407.0	533.82	42.01	696.32	2382.81	1960.45	919.94	1173.25	293.82	1570.51	1244.35	1513.94	635.3	1526.85	2493.66	1333.27	1074.04	866.97	2363.1	1508.85	985.05	1393.77	598.9	
258.09	2578.47	661.37	2076.17	1130.69	2297.55	1103.84	800.71	506.91	389.34	796.16	468.02	2759.83	2303.78	2549.87	2394.41	2883.75	2509.58	2906.67	557.61		1838.64	1840.81	2372.27	503.24	926.05	746.23	979.42	723.11	630.89	3067.29	694.1	2475.32	830.76	1000.56	2832.18	967.16	476.69	938.78	889.27	3028.05	2508.78	1643.12	3250.39	2776.82	441.94	1269.4	2966.3	398.03	1934.09	3201.75	1359.08	861.96	1345.35	1939.86	1041.48	1041.88	1133.48	843.32	1448.19	943.63	1003.67	2940.76	2372.54	1011.23	1634.64	1210.52	424.35	776.54	1020.37	589.29	898.01	786.92	1411.32	688.9	912.92	2279.48	2749.66	1080.77	592.44	1230.5	2596.5	2105.45	1124.18	743.33	372.24	1674.04	1725.59	1719.34	152.69	970.82	2925.01	827.67	1038.01	322.94	2789.48	953.47	486.37	840.79	990.69	
1980.49	1244.03	2496.9	1621.97	2083.77	1720.95	1053.36	2544.08	1507.19	2023.23	2633.39	1926.55	1366.52	1282.81	1846.62	1008.73	1267.98	871.28	1132.55	1353.77	1838.64		46.96	719.34	1485.13	1606.75	1586.6	2793.78	2446.99	1447.75	1791.14	2329.34	1671.35	1280.64	1827.16	1156.6	874.65	1408.21	2325.16	2174.38	1368.66	1334.96	857.43	1467.71	1129.25	1518.81	866.23	1748.99	1639.46	712.15	2167.44	775.67	2426.15	628.86	366.08	1508.3	1318.25	972.43	2475.88	1250.11	1728.36	1778.66	1626.07	1403.8	989.74	1667.74	2307.07	1925.94	1648.1	2433.87	1797.96	941.59	2537.81	1351.69	1428.88	2597.68	760.5	1261.34	1099.3	1340.1	1139.86	1570.07	1450.28	1023.07	2524.5	1647.29	1346.03	113.44	1060.18	1842.49	2772.55	1170.08	2661.85	1475.89	2076.43	1050.34	2698.45	2099.57	2576.02	1546.99	
