n: 100
deposito: 9
clusters: 20
factor: 1

xcoord[n]:
3477.0
91.0
3972.0
198.0
1806.0
538.0
3430.0
2186.0
1513.0
2143.0
53.0
3404.0
1034.0
2823.0
3104.0
3232.0
2790.0
374.0
741.0
3083.0
3502.0
1280.0
3326.0
217.0
2503.0
3527.0
739.0
3548.0
48.0
1419.0
1689.0
3468.0
1628.0
382.0
3029.0
3646.0
285.0
1782.0
1067.0
2849.0
920.0
1741.0
876.0
2753.0
2609.0
3941.0
3613.0
1754.0
2916.0
2445.0
3825.0
2779.0
201.0
2502.0
765.0
3105.0
1937.0
3364.0
3702.0
2164.0
3019.0
3098.0
3239.0
3359.0
2081.0
1398.0
618.0
1878.0
3803.0
397.0
3035.0
2502.0
3230.0
3479.0
958.0
3423.0
78.0
96.0
3431.0
2053.0
3048.0
571.0
3393.0
2835.0
144.0
923.0
989.0
3061.0
2977.0
1668.0
878.0
678.0
1086.0
640.0
3551.0
106.0
2243.0
3796.0
2643.0
48.0

ycoord[n]:
949.0
1732.0
329.0
1632.0
733.0
1023.0
1088.0
766.0
1646.0
1611.0
1657.0
1307.0
1344.0
376.0
1931.0
324.0
1457.0
9.0
146.0
1938.0
1067.0
237.0
1846.0
38.0
1172.0
41.0
1850.0
1999.0
154.0
872.0
1223.0
1404.0
253.0
872.0
1242.0
1758.0
1029.0
93.0
371.0
1214.0
1835.0
712.0
220.0
283.0
1286.0
258.0
523.0
559.0
1724.0
1820.0
1101.0
435.0
693.0
1274.0
833.0
1823.0
1400.0
1498.0
1624.0
1874.0
189.0
1594.0
1376.0
1693.0
1011.0
1100.0
1953.0
59.0
886.0
1217.0
152.0
146.0
380.0
1023.0
1670.0
1241.0
1066.0
691.0
78.0
1461.0
1.0
1711.0
782.0
1472.0
1185.0
108.0
1997.0
1211.0
39.0
658.0
715.0
1599.0
868.0
110.0
1673.0
1267.0
1332.0
1401.0
1320.0
267.0

color[n]:
#3d9d0a
#f49330
#6b47c7
#f49330
#d02c76
#11cf74
#60c2b7
#fc896c
#1e97c1
#3d427d
#f49330
#60c2b7
#84c49f
#a809a8
#e69257
#1b5ab1
#e69257
#536f16
#536f16
#e69257
#3d9d0a
#7981a5
#9bab3e
#31c7b4
#fc896c
#1b5ab1
#a226fd
#9bab3e
#31c7b4
#84c49f
#84c49f
#60c2b7
#58ac50
#99488
#60c2b7
#9bab3e
#f49330
#58ac50
#7981a5
#60c2b7
#a226fd
#d02c76
#536f16
#a809a8
#60c2b7
#6b47c7
#6b47c7
#d02c76
#e69257
#3d427d
#3d9d0a
#a809a8
#99488
#3d427d
#11cf74
#e69257
#3d427d
#60c2b7
#9bab3e
#3d427d
#1b5ab1
#e69257
#60c2b7
#9bab3e
#fc896c
#84c49f
#a226fd
#58ac50
#3d9d0a
#f49330
#1b5ab1
#a809a8
#1b5ab1
#3d9d0a
#a226fd
#60c2b7
#f49330
#99488
#1b5ab1
#3d427d
#1b5ab1
#a226fd
#1b5ab1
#e69257
#f49330
#536f16
#a226fd
#60c2b7
#1b5ab1
#d02c76
#11cf74
#a226fd
#11cf74
#536f16
#9bab3e
#f49330
#3d427d
#3d9d0a
#60c2b7
#31c7b4

Np[1]: 24 29 100  ;
Np[2]: 23 28 36 59 64 95  ;
Np[3]: 14 44 52 72  ;
Np[4]: 27 41 67 75 82 87 92  ;
Np[5]: 3 46 47  ;
Np[6]: 22 39  ;
Np[7]: 10 50 54 57 60 80 97  ;
Np[8]: 2 4 11 37 70 77 85 96  ;
Np[9]: 7 12 32 35 40 45 58 63 76 88 99  ;
Np[10]: 13 30 31 66  ;
Np[11]: 1 21 51 69 74 98  ;
Np[12]: 16 26 61 71 73 79 81 83 89  ;
Np[13]: 8 25 65  ;
Np[14]: 6 55 91 93  ;
Np[15]: 33 38 68  ;
Np[16]: 18 19 43 86 94  ;
Np[17]: 34 53 78  ;
Np[18]: 9  ;
Np[19]: 15 17 20 49 56 62 84  ;
Np[20]: 5 42 48 90  ;


c[n,n]:
	3475.35	793.36	3349.38	1684.9	2939.93	146.73	1303.91	2084.01	1489.23	3496.43	365.37	2474.73	869.51	1050.45	671.3	854.42	3242.25	2851.4	1064.59	120.62	2309.49	909.62	3384.9	999.2	909.38	2882.44	1052.4	3519.95	2059.44	1808.87	455.09	1975.66	3095.96	535.31	826.46	3193.0	1898.88	2478.34	681.62	2706.15	1752.1	2701.23	983.73	931.12	832.33	447.18	1766.59	956.74	1350.43	379.75	866.83	3285.99	1027.74	2714.48	949.87	1604.68	560.51	711.51	1606.11	887.34	748.11	488.85	753.3	1397.38	2084.48	3030.16	1830.0	332.03	3091.64	911.36	1263.1	620.3	74.03	2620.15	296.95	3401.01	3390.83	872.21	1513.25	1040.55	3004.24	186.94	828.07	3341.34	2688.9	2699.71	491.63	1038.32	1832.26	2609.51	2873.48	2392.37	2958.46	727.77	3385.97	1292.07	553.23	912.8	3496.16	
3475.35		4126.81	146.45	1984.75	838.15	3400.54	2306.99	1424.6	2055.56	84.08	3340.15	1019.7	3050.01	3019.56	3442.14	2712.97	1746.09	1714.03	2999.08	3475.22	1910.17	3237.01	1698.68	2476.16	3829.57	658.66	3467.3	1578.59	1582.15	1677.11	3392.89	2133.03	907.9	2978.58	3555.1	729.28	2354.95	1674.78	2806.22	835.37	1939.82	1703.63	3030.82	2557.19	4122.52	3723.73	2035.07	2825.01	2355.64	3786.94	2984.55	1044.81	2454.12	1123.6	3015.37	1875.62	3281.35	3612.61	2077.86	3309.69	3010.16	3168.07	3268.23	2116.59	1451.78	571.46	2447.92	3807.19	599.05	3341.19	2885.88	3417.78	3461.39	869.21	3367.98	666.13	1041.01	3727.11	1980.63	3426.4	480.46	3435.94	2756.29	549.56	1824.72	936.28	3015.35	3345.93	1907.98	1285.95	601.88	1317.77	1712.39	3460.5	465.24	2188.86	3719.76	2585.04	1465.63	
793.36	4126.81		3992.6	2203.35	3503.43	932.65	1838.69	2789.47	2233.55	4137.89	1130.98	3108.39	1149.96	1822.04	740.02	1633.86	3612.2	3236.18	1838.26	874.95	2693.57	1648.82	3766.26	1693.7	530.07	3572.92	1722.98	3927.9	2610.11	2451.8	1187.28	2345.23	3630.83	1312.56	1465.71	3752.86	2202.68	2905.3	1429.81	3403.34	2263.64	3097.92	1219.87	1665.42	77.47	408.06	2229.89	1749.62	2134.2	785.87	1197.7	3788.53	1747.55	3246.36	1727.35	2299.62	1317.66	1322.85	2378.21	963.23	1537.56	1278.08	1495.41	2010.23	2686.99	3726.49	2111.34	582.07	3683.64	953.57	1481.35	743.75	851.28	3298.86	1064.49	3963.13	3892.87	596.39	2228.0	980.49	3671.07	735.15	1612.21	3922.54	3057.0	3417.68	1268.01	1036.4	2327.37	3117.99	3530.35	2935.9	3339.19	1408.4	3978.17	1998.86	1086.35	1657.81	3924.49	
3349.38	146.45	3992.6		1842.24	697.48	3277.46	2168.43	1315.07	1945.11	147.14	3222.43	884.22	2910.01	2921.34	3303.94	2597.9	1632.51	1582.1	2901.18	3351.96	1765.43	3135.31	1594.11	2350.45	3689.65	583.27	3370.04	1485.59	1438.21	1546.08	3277.94	1986.59	781.96	2857.74	3450.3	609.24	2208.52	1531.43	2683.75	750.0	1796.45	1566.34	2889.26	2435.7	3987.22	3590.56	1890.1	2719.56	2254.85	3665.66	2845.06	939.0	2331.65	979.74	2913.27	1754.41	3168.83	3504.01	1980.84	3168.64	2900.25	3051.76	3161.59	1982.76	1312.64	528.62	2301.46	3681.38	460.25	3199.84	2741.64	3280.32	3337.04	760.95	3248.62	578.58	946.51	3587.09	1862.86	3283.7	381.27	3306.13	2641.85	450.25	1687.66	871.15	2893.79	3203.2	1763.4	1141.62	481.13	1171.43	1584.88	3353.25	376.42	2066.89	3605.41	2464.83	1373.22	
1684.9	1984.75	2203.35	1842.24		1300.74	1662.35	381.43	958.86	940.45	1981.61	1697.96	984.53	1077.84	1766.35	1483.49	1221.65	1604.62	1216.06	1755.78	1728.58	722.97	1883.92	1734.34	823.73	1854.91	1544.73	2153.44	1850.89	411.21	503.77	1792.34	511.94	1430.77	1324.69	2106.23	1549.53	640.45	822.9	1148.57	1414.0	68.31	1062.11	1048.48	975.0	2187.2	1819.16	181.6	1488.01	1260.91	2052.26	1017.61	1605.5	881.53	1045.79	1695.73	679.74	1735.68	2094.92	1195.84	1329.4	1552.61	1570.65	1825.76	391.04	548.77	1702.86	677.83	2002.85	1489.81	1359.41	910.49	1467.1	1697.95	1263.75	1694.92	1759.79	1710.52	1752.04	768.76	1441.66	1575.34	1587.76	1266.87	1722.37	1081.81	1505.05	1342.95	1361.2	157.06	928.17	1422.09	732.55	1322.0	1982.08	1781.9	741.46	2099.12	1022.32	1818.71	
2939.93	838.15	3503.43	697.48	1300.74		2892.73	1667.92	1157.05	1709.32	798.24	2880.04	590.81	2374.83	2721.91	2783.21	2293.44	1027.18	900.19	2704.49	2964.33	1080.91	2906.94	1035.99	1970.64	3146.18	851.08	3164.28	997.63	893.85	1168.25	2954.67	1334.54	217.11	2500.61	3193.73	253.07	1553.2	839.61	2318.88	897.37	1242.55	871.24	2335.34	2087.63	3487.93	3115.39	1301.52	2479.17	2066.85	3287.93	2316.86	471.67	1979.97	296.02	2688.77	1448.91	2865.64	3220.57	1835.23	2617.43	2622.91	2723.97	2899.47	1543.05	863.44	933.43	1650.73	3267.87	239.83	2644.55	2150.91	2767.73	2941.0	771.37	2893.22	462.01	552.8	3043.43	1577.04	2710.09	688.79	2865.15	2340.47	426.0	992.7	1073.35	2529.99	2630.01	1187.49	458.76	592.77	569.5	918.68	3082.32	496.15	1732.77	3279.85	2125.85	900.91	
146.73	3400.54	932.65	3277.46	1662.35	2892.73		1285.0	1996.56	1389.21	3424.6	220.54	2409.64	935.62	903.84	789.24	738.76	3240.89	2849.23	918.1	75.0	2312.29	765.1	3380.22	930.8	1051.48	2796.81	918.61	3508.6	2022.57	1746.23	318.28	1986.06	3055.64	429.55	703.96	3145.55	1925.08	2469.38	594.51	2618.8	1730.35	2697.47	1051.83	844.54	974.69	593.9	1757.5	817.74	1227.21	395.21	922.07	3253.07	946.46	2677.17	803.65	1525.25	415.28	601.07	1490.15	988.49	605.19	345.58	609.15	1351.2	2032.04	2942.03	1862.13	424.19	3035.74	1015.93	1322.33	735.71	81.4	2539.59	153.16	3352.07	3357.55	1010.0	1426.62	1152.17	2926.09	308.23	708.15	3287.43	2691.74	2604.76	388.96	1142.63	1813.71	2579.11	2799.04	2354.3	2956.45	597.38	3328.82	1211.82	481.59	820.48	3480.22	
1303.91	2306.99	1838.69	2168.43	381.43	1667.92	1285.0		1107.85	846.09	2311.62	1332.74	1288.87	746.91	1483.22	1135.55	917.77	1963.77	1572.39	1475.87	1349.98	1049.13	1570.35	2099.27	515.1	1524.44	1808.0	1837.21	2223.87	774.29	675.17	1431.98	757.98	1807.11	968.1	1765.12	1919.11	784.95	1186.67	800.17	1656.96	448.26	1419.23	744.83	670.32	1827.04	1447.54	479.03	1204.44	1085.36	1672.89	679.12	1986.34	598.26	1422.58	1400.65	681.14	1386.91	1741.96	1108.22	1013.32	1231.8	1216.93	1495.08	266.55	855.86	1966.62	771.18	1621.45	1844.97	1047.76	695.89	1113.07	1318.29	1524.86	1325.06	2129.24	2091.35	1422.45	707.61	1152.51	1871.16	1207.11	958.98	2084.54	1424.13	1717.02	981.66	1074.34	529.14	1308.99	1722.77	1104.72	1679.42	1638.86	2139.49	568.86	1730.7	718.17	2195.46	
2084.01	1424.6	2789.47	1315.07	958.86	1157.05	1996.56	1107.85		630.97	1460.04	1921.15	566.26	1824.55	1616.32	2168.56	1290.91	1994.26	1687.0	1596.92	2071.56	1428.14	1824.0	2065.26	1097.62	2575.31	800.43	2065.39	2091.0	779.69	458.15	1969.92	1397.74	1370.49	1568.91	2135.94	1374.29	1576.12	1350.76	1404.11	622.39	961.43	1561.81	1842.65	1153.61	2796.74	2381.41	1113.4	1405.17	948.1	2375.37	1751.94	1621.59	1056.65	1104.75	1601.81	490.2	1856.91	2189.11	689.77	2095.44	1585.85	1746.99	1846.6	851.97	557.98	946.19	1628.43	2412.82	1195.62	2132.73	1796.7	2133.27	2062.35	555.52	1952.47	1547.78	1708.78	2477.37	570.81	2249.94	944.24	2069.03	1333.4	1444.54	1647.28	630.7	1607.96	2173.88	1000.08	1126.94	836.32	887.48	1766.76	2038.18	1457.15	794.67	2296.11	1176.09	2011.93	
1489.23	2055.56	2233.55	1945.11	940.45	1709.32	1389.21	846.09	630.97		2090.51	1297.13	1140.69	1409.83	1012.88	1685.91	665.08	2386.58	2027.76	995.25	1463.84	1622.54	1206.12	2486.73	567.73	2092.93	1424.2	1457.59	2551.84	1034.55	597.21	1341.07	1452.37	1909.78	959.77	1510.17	1947.02	1560.33	1641.76	809.97	1243.34	984.79	1881.53	1461.4	568.14	2250.2	1828.84	1121.62	781.22	367.27	1757.62	1336.96	2148.04	492.39	1582.46	985.08	294.88	1226.22	1559.05	263.84	1670.17	955.15	1120.91	1218.76	603.19	903.41	1562.88	1574.46	1811.42	1789.9	1710.07	1508.35	1642.23	1459.67	1186.47	1332.4	2135.71	2244.24	2002.26	174.93	1846.92	1575.18	1499.91	705.82	2043.89	1935.82	1216.85	1001.36	1779.53	1064.82	1550.17	1465.05	1292.01	2124.15	1409.36	2065.84	296.38	1666.29	578.52	2489.05	
3496.43	84.08	4137.89	147.14	1981.61	798.24	3424.6	2311.62	1460.04	2090.51		3369.23	1029.72	3051.86	3063.28	3447.16	2744.3	1678.97	1660.26	3043.0	3499.1	1876.68	3278.45	1627.29	2497.54	3831.47	712.63	3511.69	1503.01	1575.49	1692.59	3424.36	2109.94	851.16	3004.8	3594.42	669.48	2331.42	1637.68	2830.88	885.08	1934.52	1655.99	3029.5	2582.78	4132.04	3736.25	2024.6	2863.78	2397.55	3812.76	2987.37	975.29	2478.77	1089.0	3056.51	1901.45	3314.82	3649.15	2122.12	3309.41	3045.65	3198.37	3306.2	2128.4	1455.77	637.84	2425.74	3828.44	558.51	3340.26	2877.62	3424.04	3484.17	905.09	3395.58	591.53	966.96	3728.82	2009.58	3422.33	520.81	3452.71	2788.14	480.69	1776.6	995.84	3040.88	3341.81	1899.01	1252.19	627.69	1299.85	1654.62	3498.04	393.58	2213.98	3751.74	2611.83	1390.01	
365.37	3340.15	1130.98	3222.43	1697.96	2880.04	220.54	1332.74	1921.15	1297.13	3369.23		2370.29	1097.42	692.37	997.93	632.06	3296.32	2905.08	707.96	259.24	2378.29	544.61	3430.35	911.06	1271.96	2719.76	706.82	3548.54	2032.1	1717.06	116.21	2065.21	3053.15	380.59	511.83	3131.36	2026.0	2517.47	562.74	2539.5	1766.24	2751.79	1213.42	795.28	1178.46	811.38	1811.63	641.9	1087.59	468.7	1072.85	3261.32	902.6	2681.23	596.37	1469.94	195.14	435.08	1363.48	1182.43	419.53	178.85	388.61	1355.71	2016.65	2859.91	1971.34	580.04	3008.35	1212.51	1470.21	943.19	293.74	2472.79	68.68	3334.72	3364.87	1229.3	1359.75	1353.65	2861.66	525.12	592.44	3262.28	2755.53	2511.64	356.18	1337.97	1853.35	2594.44	2741.59	2359.2	3012.06	394.42	3298.24	1161.27	403.11	761.11	3513.45	
2474.73	1019.7	3108.39	884.22	984.53	590.81	2409.64	1288.87	566.26	1140.69	1029.72	2370.29		2034.1	2151.62	2423.14	1759.63	1489.24	1233.31	2133.36	2483.5	1134.0	2346.33	1540.5	1479.04	2812.98	585.71	2597.93	1545.41	609.11	666.08	2434.74	1242.22	804.91	1997.61	2644.61	812.54	1457.57	973.56	1819.65	504.06	948.3	1135.05	2020.07	1576.07	3103.23	2706.53	1065.19	1919.98	1489.13	2801.56	1967.56	1057.21	1469.67	577.48	2125.67	904.73	2335.08	2682.65	1248.12	2296.57	2079.09	2205.23	2351.05	1098.68	438.21	737.52	1537.39	2806.62	649.54	2329.13	1894.79	2398.27	2465.98	334.74	2391.22	995.6	1142.91	2710.79	1025.69	2420.71	590.81	2425.02	1805.54	904.09	1240.97	654.55	2031.36	2340.57	934.1	648.06	437.91	478.83	1295.37	2538.41	931.19	1209.06	2762.59	1609.18	1460.18	
869.51	3050.01	1149.96	2910.01	1077.84	2374.83	935.62	746.91	1824.55	1409.83	3051.86	1097.42	2034.1		1580.19	412.29	1081.5	2476.35	2094.67	1583.49	968.77	1549.25	1553.68	2627.83	857.91	779.64	2552.59	1777.57	2783.87	1489.04	1415.4	1213.59	1201.31	2490.88	890.16	1608.49	2620.66	1078.78	1756.01	838.4	2397.93	1132.97	1953.24	116.4	934.82	1124.21	803.56	1084.55	1351.2	1492.66	1236.78	73.6	2641.09	953.65	2108.13	1474.22	1354.09	1245.62	1526.48	1636.55	270.9	1248.66	1083.08	1421.89	976.62	1598.37	2710.9	996.75	1104.76	2567.64	308.42	394.89	407.02	921.38	2269.95	1052.72	2830.39	2745.13	677.1	1330.46	437.32	2617.96	699.81	1096.07	2798.49	1918.81	2447.69	868.26	370.52	1188.93	1974.32	2469.16	1805.33	2199.15	1487.34	2859.37	1118.18	1413.28	961.01	2777.14	
1050.45	3019.56	1822.04	2921.34	1766.35	2721.91	903.84	1483.22	1616.32	1012.88	3063.28	692.37	2151.62	1580.19		1612.09	568.57	3338.71	2961.42	22.14	951.26	2489.3	237.72	3452.28	968.13	1936.76	2366.39	449.18	3535.09	1990.15	1582.24	640.49	2234.78	2920.75	693.07	568.94	2959.79	2264.05	2565.73	761.0	2186.11	1828.59	2809.18	1684.96	813.05	1870.69	1497.18	1924.81	279.63	668.28	1099.43	1530.9	3155.96	891.1	2583.9	108.0	1282.13	505.06	672.2	941.73	1744.07	337.05	571.18	348.81	1375.84	1897.63	2486.1	2237.74	1257.23	2799.58	1780.34	1883.78	1556.11	982.39	2161.81	760.17	3147.21	3253.56	1881.63	1151.3	1930.81	2542.54	1184.79	532.02	3052.56	2842.55	2116.03	721.28	1896.26	1919.02	2536.48	2448.61	2280.85	3063.88	516.11	3070.65	1048.87	871.64	765.4	3479.66	
671.3	3442.14	740.02	3303.94	1483.49	2783.21	789.24	1135.55	2168.56	1685.91	3447.16	997.93	2423.14	412.29	1612.09		1216.16	2875.31	2497.35	1620.86	790.54	1953.94	1524.9	3028.53	1118.28	408.8	2922.97	1704.55	3188.54	1894.01	1785.79	1105.48	1605.57	2902.21	940.18	1492.57	3030.15	1468.29	2165.51	968.91	2761.97	1540.66	2358.29	480.75	1146.11	712.07	429.84	1496.57	1435.22	1690.38	977.43	466.4	3053.38	1198.08	2518.96	1504.37	1683.69	1181.4	1382.35	1882.32	252.18	1277.05	1052.02	1374.88	1340.44	1991.41	3080.04	1379.69	801.18	2972.32	261.52	751.39	56.04	741.36	2642.5	936.68	3240.1	3157.4	316.41	1637.93	371.73	3000.78	485.47	1214.71	3205.79	2319.08	2798.21	903.33	382.43	1599.27	2386.25	2854.56	2213.88	2600.82	1386.2	3265.14	1412.16	1215.74	1157.12	3184.51	
854.42	2712.97	1633.86	2597.9	1221.65	2293.44	738.76	917.77	1290.91	665.08	2744.3	632.06	1759.63	1081.5	568.57	1216.16		2816.69	2432.51	563.21	811.82	1941.26	662.28	2938.35	404.47	1596.32	2088.31	931.84	3035.85	1490.59	1125.59	680.07	1673.28	2478.04	321.47	907.38	2541.3	1696.04	2036.69	250.06	1907.82	1286.63	2278.94	1174.58	249.0	1662.05	1244.86	1371.02	295.24	500.79	1094.51	1022.06	2699.37	341.22	2118.96	482.89	854.9	575.46	927.16	752.17	1288.51	337.09	456.25	616.0	837.61	1437.05	2227.91	1669.18	1162.85	2405.0	1327.8	1342.26	1163.41	814.3	1844.34	668.84	2740.04	2800.78	1520.7	737.01	1478.68	2233.49	905.12	47.43	2659.94	2303.36	1880.21	366.0	1430.28	1377.42	2050.93	2116.77	1802.92	2537.11	791.06	2690.72	561.1	1007.56	200.94	2989.09	
3242.25	1746.09	3612.2	1632.51	1604.62	1027.18	3240.89	1963.77	1994.26	2386.58	1678.97	3296.32	1489.24	2476.35	3338.71	2875.31	2816.69		391.74	3325.62	3302.08	934.25	3476.91	159.66	2425.95	3153.16	1876.83	3746.25	356.79	1355.28	1789.7	3393.94	1277.52	863.04	2927.34	3710.12	1023.88	1410.5	781.85	2752.75	1905.88	1537.17	544.54	2394.73	2574.09	3575.68	3279.53	1485.56	3066.43	2751.14	3619.65	2442.44	705.54	2475.6	912.06	3278.56	2092.33	3340.24	3699.16	2585.02	2651.12	3151.57	3174.42	3427.26	1979.36	1496.28	1959.25	1504.83	3539.37	1208.22	2664.84	2132.41	2880.0	3266.38	1760.68	3288.5	1097.66	736.48	3057.78	2219.76	2674.01	1713.36	3116.39	2863.02	1198.28	557.85	2080.95	2943.6	2603.17	1447.63	867.44	1618.8	1115.72	284.53	3586.39	1286.23	2289.87	3694.29	2620.51	415.74	
2851.4	1714.03	3236.18	1582.1	1216.06	900.19	2849.23	1572.39	1687.0	2027.76	1660.26	2905.08	1233.31	2094.67	2961.42	2497.35	2432.51	391.74		2948.94	2910.56	546.63	3093.9	535.01	2038.95	2787.98	1704.0	3363.46	693.05	993.36	1434.79	3003.18	893.43	809.91	2536.96	3322.28	993.79	1042.35	396.11	2363.11	1698.46	1149.07	153.95	2016.66	2188.38	3201.96	2896.64	1093.96	2687.14	2388.7	3228.48	2058.39	768.64	2091.29	687.42	2898.42	1732.9	2950.94	3309.38	2238.51	2278.41	2766.25	2784.4	3040.91	1594.94	1158.35	1811.18	1140.32	3150.15	1124.89	2294.01	1761.0	2499.98	2875.03	1539.37	2896.92	1134.01	844.42	2690.86	1857.57	2311.55	1574.21	2727.2	2478.53	1198.3	185.92	1867.54	2552.77	2238.56	1059.0	585.26	1454.37	800.19	107.22	3198.1	1288.36	1913.79	3302.73	2235.15	703.48	
1064.59	2999.08	1838.26	2901.18	1755.78	2704.49	918.1	1475.87	1596.92	995.25	3043.0	707.96	2133.36	1583.49	22.14	1620.86	563.21	3325.62	2948.94		966.54	2478.75	259.83	3438.6	960.81	1948.27	2345.65	468.98	3520.49	1976.17	1566.67	658.32	2226.26	2903.75	698.09	591.07	2941.95	2257.57	2553.38	760.88	2165.45	1817.7	2796.85	1687.58	806.09	1886.42	1511.0	1915.17	271.45	648.82	1118.54	1533.44	3139.42	882.3	2567.91	117.09	1266.0	522.07	694.09	921.23	1750.17	344.33	583.25	369.05	1365.04	1881.88	2465.05	2232.19	1274.8	2781.09	1786.64	1883.83	1564.92	997.02	2141.83	775.51	3128.96	3236.85	1892.27	1135.09	1937.32	2522.24	1196.84	527.88	3033.93	2830.99	2094.83	727.33	1901.96	1908.04	2521.46	2428.77	2265.59	3051.2	537.82	3051.68	1035.78	892.6	758.63	3464.6	
120.62	3475.22	874.95	3351.96	1728.58	2964.33	75.0	1349.98	2071.56	1463.84	3499.1	259.24	2483.5	968.77	951.26	790.54	811.82	3302.08	2910.56	966.54		2371.96	798.63	3442.39	1004.5	1026.3	2871.8	933.13	3572.63	2092.11	1819.7	338.71	2043.15	3126.09	504.34	705.84	3217.22	1976.63	2532.52	669.34	2693.8	1796.43	2759.22	1084.28	919.46	920.44	555.21	1820.32	880.37	1297.79	324.78	960.29	3322.12	1021.2	2746.98	853.9	1600.04	452.55	591.82	1562.53	1002.08	664.04	405.77	642.13	1422.1	2104.26	3017.03	1911.4	351.23	3108.62	1027.28	1359.5	738.89	49.65	2614.49	191.09	3424.0	3426.69	991.55	1501.61	1158.65	3000.92	305.13	780.33	3360.07	2751.53	2679.57	463.91	1154.3	1879.05	2647.5	2873.67	2424.18	3017.76	607.98	3401.88	1286.59	444.96	895.48	3545.44	
2309.49	1910.17	2693.57	1765.43	722.97	1080.91	2312.29	1049.13	1428.14	1622.54	1876.68	2378.29	1134.0	1549.25	2489.3	1953.94	1941.26	934.25	546.63	2478.75	2371.96		2602.88	1081.47	1539.47	2255.53	1701.31	2872.01	1234.79	650.04	1067.46	2479.76	348.37	1099.83	2017.18	2812.72	1271.73	522.25	251.64	1848.32	1638.05	661.93	404.36	1473.72	1693.12	2661.08	2350.46	573.03	2210.81	1965.48	2687.66	1512.02	1171.4	1602.7	787.68	2417.85	1335.75	2435.81	2791.03	1860.44	1739.66	2268.61	2266.05	2538.14	1113.86	871.03	1839.27	623.93	2605.14	1319.12	1757.06	1225.38	1955.24	2335.25	1468.73	2366.53	1460.15	1268.06	2156.87	1447.66	1783.68	1635.65	2182.15	1985.76	1479.59	379.59	1783.89	2029.94	1708.51	572.53	624.57	1489.11	660.15	652.48	2686.92	1561.79	1458.22	2772.21	1740.88	1232.37	
