n: 136
deposito: 85
clusters: 28
factor: 1

xcoord[n]:
5300.0
7275.0
12450.0
14425.0
4118.0
4743.0
5935.0
6560.0
11268.0
11893.0
13085.0
13710.0
14425.0
12450.0
10250.0
7275.0
5300.0
3100.0
5300.0
7275.0
12450.0
14425.0
13710.0
13085.0
11893.0
11268.0
6560.0
5935.0
4743.0
4118.0
5300.0
7275.0
12450.0
14425.0
14425.0
12450.0
7275.0
5300.0
4118.0
4743.0
5935.0
6560.0
11268.0
11893.0
13085.0
13710.0
14425.0
12450.0
10250.0
7275.0
5300.0
3100.0
5300.0
7275.0
12450.0
14425.0
13710.0
13085.0
11893.0
11268.0
6560.0
5935.0
4743.0
4118.0
5300.0
7275.0
12450.0
14425.0
14425.0
12450.0
7275.0
5300.0
4118.0
4743.0
5935.0
6560.0
11268.0
11893.0
13085.0
13710.0
14425.0
12450.0
7275.0
5300.0
3100.0
5300.0
7275.0
10250.0
12450.0
14425.0
13710.0
13085.0
11893.0
11268.0
6560.0
5935.0
4743.0
4118.0
5300.0
7275.0
12450.0
14425.0
14425.0
12450.0
7275.0
5300.0
4118.0
4743.0
5935.0
6560.0
11268.0
11893.0
13085.0
13710.0
14425.0
12450.0
7275.0
5300.0
3100.0
5300.0
7275.0
10250.0
12450.0
14425.0
13710.0
13085.0
11893.0
11268.0
6560.0
5935.0
4743.0
4118.0
14425.0
12450.0
7275.0
5300.0

ycoord[n]:
1965.0
1965.0
1965.0
1965.0
2275.0
2275.0
2275.0
2275.0
2275.0
2275.0
2275.0
2275.0
2590.0
2590.0
2675.0
2590.0
2590.0
2675.0
2760.0
2760.0
2760.0
2760.0
3075.0
3075.0
3075.0
3075.0
3075.0
3075.0
3075.0
3075.0
3385.0
3385.0
3385.0
3385.0
4515.0
4515.0
4515.0
4515.0
4825.0
4825.0
4825.0
4825.0
4825.0
4825.0
4825.0
4825.0
5140.0
5140.0
5225.0
5140.0
5140.0
5225.0
5310.0
5310.0
5310.0
5310.0
5625.0
5625.0
5625.0
5625.0
5625.0
5625.0
5625.0
5625.0
5935.0
5935.0
5935.0
5935.0
7065.0
7065.0
7065.0
7065.0
7375.0
7375.0
7375.0
7375.0
7375.0
7375.0
7375.0
7375.0
7690.0
7690.0
7690.0
7690.0
7775.0
7860.0
7860.0
7775.0
7860.0
7860.0
8175.0
8175.0
8175.0
8175.0
8175.0
8175.0
8175.0
8175.0
8485.0
8485.0
8485.0
8485.0
9615.0
9615.0
9615.0
9615.0
9925.0
9925.0
9925.0
9925.0
9925.0
9925.0
9925.0
9925.0
10240.0
10240.0
10240.0
10240.0
10325.0
10410.0
10410.0
10325.0
10410.0
10410.0
10725.0
10725.0
10725.0
10725.0
10725.0
10725.0
10725.0
10725.0
11035.0
11035.0
11035.0
11035.0

color[n]:
#453d6
#864f02
#fb092f
#d14fbd
#85848b
#453d6
#453d6
#864f02
#2b6176
#fb092f
#fb092f
#d14fbd
#d14fbd
#fb092f
#2b6176
#864f02
#453d6
#85848b
#453d6
#d57c35
#fb092f
#d14fbd
#d14fbd
#fb092f
#fb092f
#2b6176
#d57c35
#453d6
#453d6
#85848b
#453d6
#d57c35
#47ae67
#d14fbd
#47c664
#47ae67
#d57c35
#997119
#997119
#997119
#997119
#3aa5f4
#794b58
#47ae67
#47ae67
#47c664
#47c664
#47ae67
#794b58
#3aa5f4
#997119
#18a2ac
#997119
#3aa5f4
#8385b3
#47c664
#47c664
#8385b3
#8385b3
#794b58
#3aa5f4
#3aa5f4
#997119
#997119
#997119
#3aa5f4
#8385b3
#47c664
#8103c3
#3d77c8
#a655a5
#d9bf14
#d9bf14
#d9bf14
#4559d0
#a655a5
#3d77c8
#3d77c8
#3d77c8
#8103c3
#8103c3
#3d77c8
#a655a5
#d9bf14
#fe03c8
#4559d0
#a655a5
#3e417d
#3d77c8
#8103c3
#8103c3
#8103c3
#3d77c8
#3d77c8
#4559d0
#4559d0
#d9bf14
#d9bf14
#4559d0
#a655a5
#243fc4
#8103c3
#497e31
#243fc4
#29df33
#f69f69
#1822fc
#f69f69
#f69f69
#29df33
#334e51
#243fc4
#243fc4
#497e31
#497e31
#243fc4
#29df33
#f69f69
#1822fc
#f69f69
#29df33
#334e51
#243fc4
#a90c9c
#a90c9c
#243fc4
#243fc4
#334e51
#29df33
#f69f69
#f69f69
#1822fc
#a90c9c
#243fc4
#29df33
#f69f69

Np[1]: 124 125 133  ;
Np[2]: 5 18 30  ;
Np[3]: 3 10 11 14 21 24 25  ;
Np[4]: 106 108 109 118 120 130 131 136  ;
Np[5]: 42 50 54 61 62 66  ;
Np[6]: 70 77 78 79 82 89 93 94  ;
Np[7]: 2 8 16  ;
Np[8]: 85  ;
Np[9]: 35 46 47 56 57 68  ;
Np[10]: 111 122 128  ;
Np[11]: 38 39 40 41 51 53 63 64 65  ;
Np[12]: 43 49 60  ;
Np[13]: 75 86 95 96 99  ;
Np[14]: 69 80 81 90 91 92 102  ;
Np[15]: 9 15 26  ;
Np[16]: 107 119 132  ;
Np[17]: 101 104 112 113 116 123 126 127 134  ;
Np[18]: 1 6 7 17 19 28 29 31  ;
Np[19]: 4 12 13 22 23 34  ;
Np[20]: 105 110 117 121 129 135  ;
Np[21]: 33 36 44 45 48  ;
Np[22]: 52  ;
Np[23]: 88  ;
Np[24]: 72 73 74 84 97 98  ;
Np[25]: 71 76 83 87 100  ;
Np[26]: 20 27 32 37  ;
Np[27]: 55 58 59 67  ;
Np[28]: 103 114 115  ;


c[n,n]:
	1975.0	7150.0	9125.0	1221.98	637.46	706.63	1297.57	5976.05	6600.28	7791.17	8415.71	9146.38	7177.26	5000.66	2071.53	625.0	2311.73	795.0	2129.0	7194.06	9159.57	8482.94	7863.73	6685.79	6070.35	1679.2	1278.8	1241.91	1621.49	1420.0	2432.49	7289.64	9234.83	9474.6	7591.11	3225.39	2550.0	3094.63	2913.73	2929.65	3125.25	6617.9	7186.6	8293.72	8883.0	9661.59	7823.24	5927.07	3739.15	3175.0	3932.89	3345.0	3884.54	7893.76	9718.78	9171.9	8602.43	7540.77	7000.9	3870.81	3714.68	3702.14	3846.13	3970.0	4434.13	8178.23	9951.21	10453.5	8782.51	5469.06	5100.0	5537.62	5438.6	5447.14	5554.79	8055.13	8528.53	9480.21	9999.81	10772.24	9159.59	6056.09	5725.0	6212.58	5895.0	6217.05	7632.73	9266.8	10863.55	10454.29	9958.43	9057.14	8612.85	6336.54	6242.38	6234.93	6321.49	6520.0	6812.56	9676.41	11214.99	11907.48	10471.15	7900.83	7650.0	8047.28	7979.46	7985.29	8059.11	9948.8	10335.82	11134.08	11579.71	12318.33	10936.09	8507.42	8275.0	8644.63	8445.0	8672.87	9715.56	11065.28	12433.17	12143.55	11719.38	10963.82	10599.75	8850.15	8782.98	8777.69	8839.38	12865.87	11549.35	9282.54	9070.0	
1975.0		5175.0	7150.0	3172.18	2550.91	1375.39	779.31	4005.02	4628.39	5818.26	6442.46	7177.26	5212.6	3058.55	625.0	2071.53	4234.94	2129.0	795.0	5235.71	7194.06	6530.03	5915.08	4749.53	4144.41	1320.35	1740.03	2764.62	3346.45	2432.49	1420.0	5366.29	7289.64	7591.11	5769.15	2550.0	3225.39	4259.84	3819.77	3158.35	2948.02	4911.58	5431.9	6475.78	7041.93	7823.24	6071.35	4413.41	3175.0	3739.15	5297.0	3884.54	3345.0	6161.95	7893.76	7403.03	6866.71	5892.5	5416.61	3729.19	3897.59	4450.46	4833.45	4434.13	3970.0	6522.39	8178.23	8782.51	7265.72	5100.0	5469.06	6263.76	5973.2	5573.48	5457.04	6724.0	7112.95	7938.78	8406.98	9159.59	7717.27	5725.0	6056.09	7154.49	6217.05	5895.0	6527.38	7844.21	9266.8	8942.78	8504.13	7738.86	7382.96	6251.03	6352.93	6706.35	6966.4	6812.56	6520.0	8324.12	9676.41	10471.15	9235.97	7650.0	7900.83	8563.19	8353.0	8072.0	7992.05	8905.37	9202.58	9854.83	10235.76	10936.09	9759.93	8275.0	8507.42	9344.53	8672.87	8445.0	8873.57	9904.48	11065.28	10869.54	10511.6	9902.7	9627.13	8789.13	8861.9	9118.59	9311.51	11549.35	10442.49	9070.0	9282.54	
7150.0	5175.0		1975.0	8337.76	7713.23	6522.37	5898.15	1221.98	637.46	706.63	1297.57	2071.53	625.0	2311.73	5212.6	7177.26	9376.92	7194.06	5235.71	795.0	2129.0	1679.2	1278.8	1241.91	1621.49	5993.68	6608.88	7786.52	8405.61	7289.64	5366.29	1420.0	2432.49	3225.39	2550.0	5769.15	7591.11	8809.19	8220.55	7115.11	6547.65	3094.63	2913.73	2929.65	3125.25	3739.15	3175.0	3932.89	6071.35	7823.24	9902.03	7893.76	6161.95	3345.0	3884.54	3870.81	3714.68	3702.14	3846.13	6934.53	7472.67	8531.91	9100.43	8178.23	6522.39	3970.0	4434.13	5469.06	5100.0	7265.72	8782.51	9934.3	9416.26	8468.37	7997.51	5537.62	5438.6	5447.14	5554.79	6056.09	5725.0	7717.27	9159.59	11008.12	9266.8	7844.21	6212.58	5895.0	6217.05	6336.54	6242.38	6234.93	6321.49	8558.98	9000.52	9897.57	10391.65	9676.41	8324.12	6520.0	6812.56	7900.83	7650.0	9235.97	10471.15	11523.19	11079.69	10286.24	9902.21	8047.28	7979.46	7985.29	8059.11	8507.42	8275.0	9759.93	10936.09	12542.41	11065.28	9904.48	8644.63	8445.0	8672.87	8850.15	8782.98	8777.69	8839.38	10556.03	10917.09	11667.71	12089.66	9282.54	9070.0	10442.49	11549.35	
9125.0	7150.0	1975.0		10311.66	9686.96	8495.66	7871.11	3172.18	2550.91	1375.39	779.31	625.0	2071.53	4234.94	7177.26	9146.38	11347.23	9159.57	7194.06	2129.0	795.0	1320.35	1740.03	2764.62	3346.45	7942.94	8562.25	9745.42	10366.6	9234.83	7289.64	2432.49	1420.0	2550.0	3225.39	7591.11	9474.6	10696.44	10095.58	8958.78	8368.86	4259.84	3819.77	3158.35	2948.02	3175.0	3739.15	5297.0	7823.24	9661.59	11784.87	9718.78	7893.76	3884.54	3345.0	3729.19	3897.59	4450.46	4833.45	8674.9	9245.31	10350.69	10937.54	9951.21	8178.23	4434.13	3970.0	5100.0	5469.06	8782.51	10453.5	11640.55	11090.95	10067.18	9546.01	6263.76	5973.2	5573.48	5457.04	5725.0	6056.09	9159.59	10772.24	12728.38	10863.55	9266.8	7154.49	6217.05	5895.0	6251.03	6352.93	6706.35	6966.4	10021.09	10518.75	11502.4	12033.22	11214.99	9676.41	6812.56	6520.0	7650.0	7900.83	10471.15	11907.48	13022.9	12534.06	11637.94	11190.17	8563.19	8353.0	8072.0	7992.05	8275.0	8507.42	10936.09	12318.33	14076.41	12433.17	11065.28	9344.53	8672.87	8445.0	8789.13	8861.9	9118.59	9311.51	11772.67	12199.09	13056.75	13526.71	9070.0	9282.54	11549.35	12865.87	
1221.98	3172.18	8337.76	10311.66		625.0	1817.0	2442.0	7150.0	7775.0	8967.0	9592.0	10311.81	8337.95	6145.03	3172.68	1223.25	1093.77	1277.63	3194.04	8346.1	10318.4	9625.3	9002.62	7816.05	7194.62	2569.7	1985.32	1015.2	800.0	1621.49	3346.45	8405.61	10366.6	10547.6	8627.85	3870.95	2532.73	2550.0	2625.48	3131.13	3530.7	7591.11	8182.49	9322.53	9925.17	10697.78	8810.81	6804.7	4263.2	3099.25	3120.71	3257.05	4379.25	8867.55	10744.56	10160.17	9572.33	8466.0	7895.89	4145.58	3811.04	3407.8	3350.0	3846.13	4833.45	9100.43	10937.54	11365.67	9610.74	5736.79	4933.68	5100.0	5138.15	5414.01	5654.5	8782.51	9298.42	10315.87	10863.54	11642.87	9937.02	6268.08	5542.5	5593.42	5708.71	6415.52	8237.2	10030.68	11722.9	11261.28	10733.92	9760.15	9269.98	6385.4	6173.45	5933.01	5900.0	6321.49	6966.4	10391.65	12033.22	12653.45	11103.96	7990.13	7434.56	7650.0	7675.49	7862.82	8030.31	10471.15	10907.48	11786.84	12269.02	13025.95	11526.64	8567.84	8052.23	8114.11	8220.42	8726.1	10119.48	11644.76	13130.59	12783.15	12321.1	11482.73	11069.1	8795.79	8643.15	8473.08	8450.0	13526.71	12089.66	9311.51	8839.38	
637.46	2550.91	7713.23	9686.96	625.0		1192.0	1817.0	6525.0	7150.0	8342.0	8967.0	9687.12	7713.43	5521.51	2551.52	639.9	1690.99	738.56	2578.03	7722.25	9694.14	9002.62	8380.27	7194.62	6573.86	1985.32	1435.57	800.0	1015.2	1241.91	2764.62	7786.52	9745.42	9937.74	8025.92	3380.62	2308.21	2625.48	2550.0	2814.85	3131.13	7005.58	7591.11	8723.04	9322.53	10097.0	8222.29	6247.36	3823.51	2918.64	3376.68	3085.69	3952.5	8283.06	10146.54	9572.33	8989.52	7895.89	7334.72	3811.04	3555.75	3350.0	3407.8	3702.14	4450.46	8531.91	10350.69	10802.09	9074.25	5418.04	4822.28	5138.15	5100.0	5237.45	5414.01	8281.64	8782.51	9777.47	10315.87	11093.39	9419.13	5977.73	5443.57	5740.16	5612.71	6132.15	7783.13	9517.88	11177.36	10733.92	10217.58	9269.98	8796.91	6173.45	6019.21	5900.0	5933.01	6234.93	6706.35	9897.57	11502.4	12149.76	10643.0	7764.45	7361.1	7675.49	7650.0	7742.31	7862.82	10054.76	10471.15	11318.63	11786.84	12537.24	11083.28	8357.77	7984.45	8215.96	8154.05	8519.93	9753.44	11206.07	12645.92	12321.1	11873.98	11069.1	10676.05	8643.15	8533.66	8450.0	8473.08	13056.75	11667.71	9118.59	8777.69	
706.63	1375.39	6522.37	8495.66	1817.0	1192.0		625.0	5333.0	5958.0	7150.0	7775.0	8495.84	6522.61	4333.5	1376.53	708.84	2863.08	799.03	1425.07	6533.03	8503.84	7816.05	7194.62	6011.47	5392.67	1015.2	800.0	1435.57	1985.32	1278.8	1740.03	6608.88	8562.25	8780.53	6889.33	2610.21	2328.27	3131.13	2814.85	2550.0	2625.48	5911.29	6480.76	7591.11	8182.49	8960.38	7117.12	5227.02	3162.88	2934.53	4091.42	3100.72	3317.65	7187.24	9016.17	8466.0	7895.89	6835.22	6297.89	3407.8	3350.0	3555.75	3811.04	3714.68	3897.59	7472.67	9245.31	9748.04	8086.37	4973.9	4831.91	5414.01	5237.45	5100.0	5138.15	7379.08	7842.69	8782.51	9298.42	10069.87	8471.57	5578.34	5452.11	6187.67	5620.98	5743.5	6990.65	8581.23	10162.3	9760.15	9269.98	8384.97	7953.04	5933.01	5900.0	6019.21	6173.45	6242.38	6352.93	9000.52	10518.75	11223.0	9814.32	7461.31	7367.42	7862.82	7742.31	7650.0	7675.49	9325.42	9696.4	10471.15	10907.48	11641.36	10290.11	8076.93	7990.27	8534.62	8159.75	8244.62	9133.55	10422.26	11758.33	11482.73	11069.1	10339.26	9992.17	8473.08	8450.0	8533.66	8643.15	12199.09	10917.09	8861.9	8782.98	
1297.57	779.31	5898.15	7871.11	2442.0	1817.0	625.0		4708.0	5333.0	6525.0	7150.0	7871.31	5898.42	3711.62	781.31	1298.78	3483.04	1350.12	863.97	5909.93	7879.94	7194.62	6573.86	5392.67	4775.49	800.0	1015.2	1985.32	2569.7	1679.2	1320.35	5993.68	7942.94	8177.76	6301.56	2351.35	2570.06	3530.7	3131.13	2625.48	2550.0	5354.23	5911.29	7005.58	7591.11	8370.57	6549.83	4724.26	2952.87	3129.83	4546.88	3286.16	3118.08	6625.96	8430.27	7895.89	7334.72	6297.89	5778.21	3350.0	3407.8	3811.04	4145.58	3870.81	3729.19	6934.53	8674.9	9208.82	7591.85	4843.07	4952.95	5654.5	5414.01	5138.15	5100.0	6940.84	7379.08	8281.64	8782.51	9548.85	8000.9	5462.0	5559.66	6497.82	5725.37	5630.58	6623.15	8116.92	9646.27	9269.98	8796.91	7953.04	7548.2	5900.0	5933.01	6173.45	6385.4	6336.54	6251.03	8558.98	10021.09	10757.97	9411.04	7374.74	7447.36	8030.31	7862.82	7675.49	7650.0	8982.64	9325.42	10054.76	10471.15	11193.72	9906.23	7997.03	8064.05	8762.08	8232.0	8166.36	8855.43	10043.42	11315.32	11069.1	10676.05	9992.17	9673.04	8450.0	8473.08	8643.15	8795.79	11772.67	10556.03	8789.13	8850.15	
5976.05	4005.02	1221.98	3172.18	7150.0	6525.0	5333.0	4708.0		625.0	1817.0	2442.0	3172.68	1223.25	1093.77	4005.41	5976.31	8177.79	5987.67	4022.35	1277.63	3194.04	2569.7	1985.32	1015.2	800.0	4775.49	5392.67	6573.86	7194.62	6070.35	4144.41	1621.49	3346.45	3870.95	2532.73	4578.39	6374.53	7591.11	7005.58	5911.29	5354.23	2550.0	2625.48	3131.13	3530.7	4263.2	3099.25	3120.71	4914.5	6620.06	8684.4	6695.39	5015.5	3257.05	4379.25	4145.58	3811.04	3407.8	3350.0	5778.21	6297.89	7334.72	7895.89	7000.9	5416.61	3846.13	4833.45	5736.79	4933.68	6236.04	7652.52	8782.51	8281.64	7379.08	6940.84	5100.0	5138.15	5414.01	5654.5	6268.08	5542.5	6728.02	8058.49	9847.14	8173.69	6865.59	5593.42	5708.71	6415.52	6385.4	6173.45	5933.01	5900.0	7548.2	7953.04	8796.91	9269.98	8612.85	7382.96	6321.49	6966.4	7990.13	7434.56	8355.82	9460.05	10471.15	10054.76	9325.42	8982.64	7650.0	7675.49	7862.82	8030.31	8567.84	8052.23	8909.84	9952.8	11468.16	10089.36	9062.13	8114.11	8220.42	8726.1	8795.79	8643.15	8473.08	8450.0	9673.04	9992.17	10676.05	11069.1	9311.51	8839.38	9627.13	10599.75	
6600.28	4628.39	637.46	2550.91	7775.0	7150.0	5958.0	5333.0	625.0		1192.0	1817.0	2551.52	639.9	1690.99	4628.73	6600.52	8802.09	6610.81	4643.4	738.56	2578.03	1985.32	1435.57	800.0	1015.2	5392.67	6011.47	7194.62	7816.05	6685.79	4749.53	1241.91	2764.62	3380.62	2308.21	5132.59	6963.13	8182.49	7591.11	6480.76	5911.29	2625.48	2550.0	2814.85	3131.13	3823.51	2918.64	3376.68	5434.53	7188.59	9274.66	7258.02	5526.04	3085.69	3952.5	3811.04	3555.75	3350.0	3407.8	6297.89	6835.22	7895.89	8466.0	7540.77	5892.5	3702.14	4450.46	5418.04	4822.28	6653.57	8149.34	9298.42	8782.51	7842.69	7379.08	5138.15	5100.0	5237.45	5414.01	5977.73	5443.57	7116.75	8531.7	10371.44	8640.59	7246.94	5740.16	5612.71	6132.15	6173.45	6019.21	5900.0	5933.01	7953.04	8384.97	9269.98	9760.15	9057.14	7738.86	6234.93	6706.35	7764.45	7361.1	8671.88	9866.27	10907.48	10471.15	9696.4	9325.42	7675.49	7650.0	7742.31	7862.82	8357.77	7984.45	9206.91	10339.67	11921.38	10471.19	9354.37	8215.96	8154.05	8519.93	8643.15	8533.66	8450.0	8473.08	9992.17	10339.26	11069.1	11482.73	9118.59	8777.69	9902.7	10963.82	
7791.17	5818.26	706.63	1375.39	8967.0	8342.0	7150.0	6525.0	1817.0	1192.0		625.0	1376.53	708.84	2863.08	5818.53	7791.37	9993.01	7800.09	5830.21	799.03	1425.07	1015.2	800.0	1435.57	1985.32	6573.86	7194.62	8380.27	9002.62	7863.73	5915.08	1278.8	1740.03	2610.21	2328.27	6226.85	8100.85	9322.53	8723.04	7591.11	7005.58	3131.13	2814.85	2550.0	2625.48	3162.88	2934.53	4091.42	6477.99	8295.45	10411.66	8355.68	6554.95	3100.72	3317.65	3407.8	3350.0	3555.75	3811.04	7334.72	7895.89	8989.52	9572.33	8602.43	6866.71	3714.68	3897.59	4973.9	4831.91	7529.95	9140.59	10315.87	9777.47	8782.51	8281.64	5414.01	5237.45	5100.0	5138.15	5578.34	5452.11	7942.19	9483.06	11399.57	9581.15	8059.05	6187.67	5620.98	5743.5	5933.01	5900.0	6019.21	6173.45	8796.91	9269.98	10217.58	10733.92	9958.43	8504.13	6242.38	6352.93	7461.31	7367.42	9361.18	10699.62	11786.84	11318.63	10471.15	10054.76	7862.82	7742.31	7650.0	7675.49	8076.93	7990.27	9858.87	11137.66	12825.86	11259.86	9996.72	8534.62	8159.75	8244.62	8473.08	8450.0	8533.66	8643.15	10676.05	11069.1	11873.98	12321.1	8861.9	8782.98	10511.6	11719.38	
8415.71	6442.46	1297.57	779.31	9592.0	8967.0	7775.0	7150.0	2442.0	1817.0	625.0		781.31	1298.78	3483.04	6442.71	8415.9	10617.54	8423.97	6453.25	1350.12	863.97	800.0	1015.2	1985.32	2569.7	7194.62	7816.05	9002.62	9625.3	8482.94	6530.03	1679.2	1320.35	2351.35	2570.06	6813.72	8703.2	9925.17	9322.53	8182.49	7591.11	3530.7	3131.13	2625.48	2550.0	2952.87	3129.83	4546.88	7043.97	8884.61	11012.47	8940.88	7114.8	3286.16	3118.08	3350.0	3407.8	3811.04	4145.58	7895.89	8466.0	9572.33	10160.17	9171.9	7403.03	3870.81	3729.19	4843.07	4952.95	8022.05	9678.44	10863.54	10315.87	9298.42	8782.51	5654.5	5414.01	5138.15	5100.0	5462.0	5559.66	8410.2	10002.52	11950.82	10095.56	8520.65	6497.82	5725.37	5630.58	5900.0	5933.01	6173.45	6385.4	9269.98	9760.15	10733.92	11261.28	10454.29	8942.78	6336.54	6251.03	7374.74	7447.36	9761.39	11162.6	12269.02	11786.84	10907.48	10471.15	8030.31	7862.82	7675.49	7650.0	7997.03	8064.05	10239.65	11583.15	13318.21	11700.7	10372.44	8762.08	8232.0	8166.36	8450.0	8473.08	8643.15	8795.79	11069.1	11482.73	12321.1	12783.15	8789.13	8850.15	10869.54	12143.55	
9146.38	7177.26	2071.53	625.0	10311.81	9687.12	8495.84	7871.31	3172.68	2551.52	1376.53	781.31		1975.0	4175.87	7150.0	9125.0	11325.32	9126.58	7152.02	1982.3	170.0	863.97	1425.07	2578.03	3194.04	7879.94	8503.84	9694.14	10318.4	9159.57	7194.06	2129.0	795.0	1925.0	2757.94	7404.6	9325.84	10546.54	9936.62	8779.26	8176.4	3868.06	3377.31	2605.92	2346.58	2550.0	3225.39	4936.99	7591.11	9474.6	11627.5	9521.77	7649.9	3361.4	2720.0	3118.08	3317.65	3952.5	4379.25	8430.27	9016.17	10146.54	10744.56	9718.78	7893.76	3884.54	3345.0	4475.0	4891.45	8434.93	10163.23	11363.56	10799.88	9745.58	9206.22	5732.61	5413.62	4969.09	4838.12	5100.0	5469.06	8782.51	10453.5	12455.51	10537.48	8882.31	6656.94	5627.92	5270.0	5630.58	5743.5	6132.15	6415.52	9646.27	10162.3	11177.36	11722.9	10863.55	9266.8	6217.05	5895.0	7025.0	7297.35	10023.63	11515.91	12650.55	12146.74	11219.73	10754.55	7985.54	7759.72	7456.39	7369.77	7650.0	7900.83	10471.15	11907.48	13714.44	12017.41	10595.99	8789.82	8065.55	7820.0	8166.36	8244.62	8519.93	8726.1	11315.32	11758.33	12645.92	13130.59	8445.0	8672.87	11065.28	12433.17	
7177.26	5212.6	625.0	2071.53	8337.95	7713.43	6522.61	5898.42	1223.25	639.9	708.84	1298.78	1975.0		2201.64	5175.0	7150.0	9350.39	7152.02	5177.79	170.0	1982.3	1350.12	799.03	738.56	1277.63	5909.93	6533.03	7722.25	8346.1	7194.06	5235.71	795.0	2129.0	2757.94	1925.0	5521.44	7404.6	8626.55	8024.53	6887.7	6299.79	2528.31	2303.36	2323.46	2565.7	3225.39	2550.0	3432.67	5769.15	7591.11	9714.2	7649.9	5846.28	2720.0	3361.4	3286.16	3100.72	3085.69	3257.05	6625.96	7187.24	8283.06	8867.55	7893.76	6161.95	3345.0	3884.54	4891.45	4475.0	6841.51	8434.93	9608.25	9071.61	8083.41	7588.7	4928.83	4817.31	4826.95	4948.11	5469.06	5100.0	7265.72	8782.51	10691.43	8882.31	7386.04	5632.43	5270.0	5627.92	5725.37	5620.98	5612.71	5708.71	8116.92	8581.23	9517.88	10030.68	9266.8	7844.21	5895.0	6217.05	7297.35	7025.0	8725.32	10023.63	11100.65	10639.55	9810.58	9407.14	7429.63	7356.12	7362.44	7442.43	7900.83	7650.0	9235.97	10471.15	12134.77	10595.99	9377.26	8041.78	7820.0	8065.55	8232.0	8159.75	8154.05	8220.42	10043.42	10422.26	11206.07	11644.76	8672.87	8445.0	9904.48	11065.28	
5000.66	3058.55	2311.73	4234.94	6145.03	5521.51	4333.5	3711.62	1093.77	1690.99	2863.08	3483.04	4175.87	2201.64		2976.21	4950.73	7150.0	4950.73	2976.21	2201.64	4175.87	3483.04	2863.08	1690.99	1093.77	3711.62	4333.5	5521.51	6145.03	5000.66	3058.55	2311.73	4234.94	4562.48	2868.03	3498.03	5280.92	6497.99	5911.81	4820.97	4270.67	2378.83	2705.91	3558.05	4073.59	4848.39	3303.97	2550.0	3863.53	5529.8	7591.11	5607.65	3974.15	3432.67	4936.99	4546.88	4091.42	3376.68	3120.71	4724.26	5227.02	6247.36	6804.7	5927.07	4413.41	3932.89	5297.0	6058.28	4910.41	5303.09	6616.24	7726.02	7239.96	6380.38	5975.46	4808.98	4978.9	5488.83	5836.23	6525.4	5476.33	5831.02	7046.47	8782.51	7168.45	5977.86	5100.0	5632.43	6656.94	6497.82	6187.67	5740.16	5593.42	6623.15	6990.65	7783.13	8237.2	7632.73	6527.38	6212.58	7154.49	8099.03	7280.36	7550.78	8524.44	9495.47	9104.37	8436.93	8135.02	7321.12	7433.84	7784.58	8033.31	8640.59	7878.4	8128.95	9040.56	10471.15	9183.29	8287.39	7650.0	8041.78	8789.82	8762.08	8534.62	8215.96	8114.11	8855.43	9133.55	9753.44	10119.48	9344.53	8644.63	8873.57	9715.56	
