n: 152
deposito: 5
clusters: 31
factor: 1

xcoord[n]:
2100.0
2100.0
2100.0
2100.0
2100.0
2100.0
2100.0
2100.0
2348.0
2350.0
2348.0
2350.0
2348.0
2350.0
2348.0
2350.0
2625.0
2775.0
2625.0
2634.0
2607.0
2625.0
2775.0
2625.0
2607.0
2634.0
2625.0
2775.0
2625.0
2607.0
2634.0
2625.0
2775.0
2625.0
2634.0
2607.0
2825.0
2825.0
2825.0
2825.0
8349.0
8353.0
8349.0
8353.0
8349.0
8353.0
8349.0
8353.0
8474.0
8576.0
8575.0
8474.0
8576.0
8575.0
8474.0
8576.0
8575.0
8474.0
8576.0
8575.0
8625.0
8675.0
8675.0
8669.0
8625.0
8675.0
8675.0
8669.0
8625.0
8675.0
8675.0
8669.0
8625.0
8675.0
8675.0
8669.0
9250.0
9250.0
9250.0
9250.0
9250.0
9250.0
9250.0
9250.0
9498.0
9500.0
9498.0
9500.0
9498.0
9500.0
9498.0
9500.0
9784.0
9757.0
9775.0
9775.0
9784.0
9757.0
9775.0
9775.0
9784.0
9757.0
9775.0
9775.0
9784.0
9757.0
9775.0
9775.0
9925.0
9975.0
9925.0
9975.0
9925.0
9975.0
9925.0
9975.0
15499.0
15503.0
15499.0
15503.0
15499.0
15503.0
15499.0
15503.0
15624.0
15726.0
15775.0
15725.0
15624.0
15726.0
15775.0
15725.0
15624.0
15726.0
15775.0
15725.0
15624.0
15726.0
15775.0
15725.0
15825.0
15825.0
15819.0
15825.0
15825.0
15819.0
15825.0
15825.0
15819.0
15825.0
15825.0
15819.0

ycoord[n]:
1850.0
3000.0
4400.0
5550.0
6950.0
8100.0
9500.0
10650.0
11205.0
10050.0
8655.0
7500.0
6105.0
4950.0
3555.0
2400.0
11175.0
10995.0
10025.0
9748.0
9831.0
8625.0
8445.0
7475.0
7281.0
7198.0
6075.0
5895.0
4925.0
4731.0
4648.0
3525.0
3345.0
2375.0
2098.0
2181.0
3025.0
5575.0
8125.0
10675.0
10106.0
9397.0
7556.0
6847.0
5006.0
4297.0
2456.0
1747.0
1777.0
1803.0
2325.0
4327.0
4353.0
4875.0
6877.0
6903.0
7425.0
9427.0
9453.0
9975.0
9875.0
9675.0
9525.0
9450.0
7325.0
7125.0
6975.0
6900.0
4775.0
4575.0
4425.0
4350.0
2225.0
1875.0
2025.0
1800.0
1850.0
3000.0
4400.0
5550.0
6950.0
8100.0
9500.0
10650.0
11205.0
10050.0
8655.0
7500.0
6105.0
4950.0
3555.0
2400.0
2098.0
2181.0
2375.0
3525.0
4648.0
4731.0
4925.0
6075.0
7198.0
7281.0
7475.0
8625.0
9748.0
9831.0
10025.0
11175.0
10995.0
10675.0
8445.0
8125.0
5895.0
5575.0
3345.0
3025.0
10106.0
9397.0
7556.0
6847.0
5006.0
4297.0
2456.0
1747.0
1777.0
1803.0
2225.0
2325.0
4327.0
4353.0
4775.0
4875.0
6877.0
6903.0
7325.0
7425.0
9427.0
9453.0
9875.0
9975.0
9675.0
9525.0
9450.0
7125.0
6975.0
6900.0
4575.0
4425.0
4350.0
1875.0
2025.0
1800.0

color[n]:
#f06f9
#c994b1
#d4d4d5
#510ad1
#339c5e
#1abab9
#854ec
#bc1843
#bc1843
#7abda5
#fad104
#b7f97a
#510ad1
#d4d4d5
#c994b1
#f06f9
#bc1843
#bc1843
#7abda5
#7abda5
#7abda5
#fad104
#fad104
#b7f97a
#b7f97a
#b7f97a
#510ad1
#510ad1
#510ad1
#d4d4d5
#d4d4d5
#c994b1
#c994b1
#c994b1
#f06f9
#f06f9
#c994b1
#510ad1
#fad104
#7abda5
#ebf298
#ebf298
#6f6eed
#62b2cd
#ee8ccb
#ee8ccb
#7ec5da
#7ec5da
#7ec5da
#7ec5da
#7ec5da
#ee8ccb
#ee8ccb
#ee8ccb
#62b2cd
#62b2cd
#6f6eed
#ebf298
#ebf298
#ebf298
#ebf298
#ebf298
#ebf298
#ebf298
#6f6eed
#62b2cd
#62b2cd
#62b2cd
#ee8ccb
#ee8ccb
#ee8ccb
#ee8ccb
#7ec5da
#7ec5da
#7ec5da
#7ec5da
#a1fa36
#c36110
#382ab1
#9ffea7
#62b2cd
#723c3a
#98dc49
#a4cbb2
#b7941a
#98dc49
#37c31b
#f2e92d
#9ffea7
#382ab1
#c36110
#a1fa36
#a1fa36
#a1fa36
#a1fa36
#c36110
#382ab1
#382ab1
#382ab1
#9ffea7
#f2e92d
#f2e92d
#f2e92d
#37c31b
#98dc49
#98dc49
#98dc49
#b7941a
#b7941a
#b7941a
#37c31b
#37c31b
#9ffea7
#9ffea7
#c36110
#c36110
#9b3d92
#9b3d92
#f8d7fe
#d6a6cf
#a7ac21
#a7ac21
#42c075
#42c075
#42c075
#42c075
#42c075
#42c075
#a7ac21
#a7ac21
#a7ac21
#a7ac21
#d6a6cf
#d6a6cf
#f8d7fe
#f8d7fe
#9b3d92
#9b3d92
#9b3d92
#9b3d92
#9b3d92
#9b3d92
#9b3d92
#d6a6cf
#d6a6cf
#d6a6cf
#a7ac21
#a7ac21
#a7ac21
#42c075
#42c075
#42c075

Np[1]: 117 118 137 138 139 140 141 142 143  ;
Np[2]: 1 16 35 36  ;
Np[3]: 8 9 17 18  ;
Np[4]: 123 124 125 126 127 128 150 151 152  ;
Np[5]: 44 55 56 66 67 68 81  ;
Np[6]: 47 48 49 50 51 73 74 75 76  ;
Np[7]: 85 108 109 110  ;
Np[8]: 5  ;
Np[9]: 121 122 129 130 131 132 147 148 149  ;
Np[10]: 45 46 52 53 54 69 70 71 72  ;
Np[11]: 3 14 30 31  ;
Np[12]: 119 135 136  ;
Np[13]: 41 42 58 59 60 61 62 63 64  ;
Np[14]: 78 91 96 115 116  ;
Np[15]: 80 89 100 113 114  ;
Np[16]: 87 104 111 112  ;
Np[17]: 11 22 23 39  ;
Np[18]: 2 15 32 33 34 37  ;
Np[19]: 4 13 27 28 29 38  ;
Np[20]: 83 86 105 106 107  ;
Np[21]: 10 19 20 21 40  ;
Np[22]: 88 101 102 103  ;
Np[23]: 77 92 93 94 95  ;
Np[24]: 79 90 97 98 99  ;
Np[25]: 82  ;
Np[26]: 6  ;
Np[27]: 7  ;
Np[28]: 12 24 25 26  ;
Np[29]: 84  ;
Np[30]: 43 57 65  ;
Np[31]: 120 133 134 144 145 146  ;


c[n,n]:
	1150.0	2550.0	3700.0	5100.0	6250.0	7650.0	8800.0	9358.29	8203.81	6809.52	5655.53	4262.22	3110.06	1722.94	604.15	9339.77	9169.88	8191.84	7916.03	7997.09	6795.31	6629.45	5649.45	5454.61	5374.59	4257.49	4100.93	3119.5	2925.27	2848.5	1755.35	1640.32	742.46	588.78	605.48	1380.67	3794.9	6316.74	8854.73	10354.3	9800.88	8462.18	8004.37	7000.74	6714.75	6278.31	6253.85	6374.42	6476.17	6492.4	6838.38	6942.88	7146.77	8117.8	8214.1	8544.37	9901.45	9987.2	10389.48	10342.93	10220.63	10106.25	10045.48	8517.7	8429.49	8336.44	8285.79	7150.61	7117.32	7061.25	7028.64	6535.77	6575.05	6577.33	6569.19	7150.0	7241.89	7591.11	8050.62	8782.51	9496.58	10471.15	11338.54	11926.71	11045.36	10051.79	9310.34	8534.37	8023.09	7591.93	7420.41	7688.0	7664.15	7692.94	7855.65	8177.57	8181.06	8268.09	8761.06	9361.89	9387.51	9515.58	10237.49	11019.18	11060.11	11213.22	12077.3	12035.85	11827.77	10233.51	10069.32	8808.67	8711.56	7966.53	7962.18	15738.32	15381.73	14563.37	14304.21	13765.67	13624.54	13412.7	13403.4	13524.2	13626.08	13680.14	13633.28	13748.97	13853.98	13984.32	13956.76	14428.07	14532.75	14730.28	14721.46	15501.92	15603.64	15855.8	15863.68	15798.93	15725.18	15683.46	14703.78	14650.64	14618.94	13992.9	13964.46	13944.93	13725.02	13726.12	13719.09	
1150.0		1400.0	2550.0	3950.0	5100.0	6500.0	7650.0	8208.75	7054.43	5660.44	4506.94	3114.89	1965.96	607.89	650.0	8191.84	8023.44	7044.59	6769.1	6849.79	5649.45	5486.68	4505.69	4310.92	4231.83	3119.5	2972.65	1995.31	1803.72	1732.36	742.46	758.06	816.24	1048.22	963.23	725.43	2675.12	5176.03	7709.17	9462.83	8945.48	7733.51	7341.62	6563.08	6386.1	6272.63	6377.3	6490.27	6585.7	6510.09	6510.67	6615.83	6741.01	7460.5	7561.22	7842.59	9051.75	9142.2	9517.16	9478.46	9369.43	9263.17	9206.21	7828.23	7761.85	7683.18	7639.49	6762.12	6761.01	6727.65	6706.29	6570.86	6670.55	6646.9	6677.71	7241.89	7150.0	7285.77	7591.11	8168.54	8782.51	9662.94	10471.15	11047.73	10220.69	9311.79	8660.83	8023.18	7652.61	7418.79	7424.28	7736.76	7700.68	7700.41	7692.94	7858.74	7850.22	7912.73	8268.09	8755.97	8772.49	8884.33	9515.58	10226.41	10261.2	10404.63	11213.22	11187.08	10996.42	9533.03	9395.81	8343.36	8285.3	7832.6	7875.04	15166.69	14851.33	14152.4	13944.17	13548.33	13465.61	13410.04	13461.44	13579.19	13678.48	13696.94	13641.71	13588.95	13693.01	13789.72	13753.41	14068.75	14173.97	14342.64	14325.55	14973.47	15076.77	15305.92	15306.58	15262.09	15197.08	15159.6	14331.48	14289.03	14262.57	13815.07	13798.78	13785.26	13771.03	13759.59	13771.38	
2550.0	1400.0		1150.0	2550.0	3700.0	5100.0	6250.0	6809.52	5655.53	4262.22	3110.06	1722.94	604.15	880.64	2015.56	6795.31	6629.45	5649.45	5374.59	5454.61	4257.49	4100.93	3119.5	2925.27	2848.5	1755.35	1640.32	742.46	605.48	588.78	1020.42	1252.46	2091.95	2363.13	2276.18	1554.43	1380.67	3794.9	6316.74	8462.18	8004.37	7000.74	6714.75	6278.31	6253.85	6544.4	6792.53	6892.61	6977.32	6799.36	6374.42	6476.17	6492.4	6838.38	6942.88	7146.77	8117.8	8214.1	8544.37	8517.7	8429.49	8336.44	8285.79	7150.61	7117.32	7061.25	7028.64	6535.77	6577.33	6575.05	6569.19	6877.95	7043.17	6990.8	7064.83	7591.11	7285.77	7150.0	7241.89	7591.11	8050.62	8782.51	9496.58	10051.79	9310.34	8534.37	8023.09	7591.93	7420.41	7446.1	7665.51	8021.41	7972.05	7937.65	7724.72	7688.0	7664.15	7692.94	7855.65	8177.57	8181.06	8268.09	8761.06	9361.89	9387.51	9515.58	10237.49	10233.51	10069.32	8808.67	8711.56	7966.53	7962.18	7895.8	7994.14	14563.37	14304.21	13765.67	13624.54	13412.7	13403.4	13539.29	13663.05	13776.02	13871.28	13846.89	13782.1	13524.2	13626.08	13680.14	13633.28	13748.97	13853.98	13984.32	13956.76	14428.07	14532.75	14730.28	14721.46	14703.78	14650.64	14618.94	13992.9	13964.46	13944.93	13726.12	13725.02	13719.09	13955.33	13928.97	13963.2	
3700.0	2550.0	1150.0		1400.0	2550.0	3950.0	5100.0	5660.44	4506.94	3114.89	1965.96	607.89	650.0	2010.36	3159.91	5649.45	5486.68	4505.69	4231.83	4310.92	3119.5	2972.65	1995.31	1803.72	1732.36	742.46	758.06	816.24	963.23	1048.22	2091.95	2306.0	3218.11	3493.06	3406.94	2627.02	725.43	2675.12	5176.03	7733.51	7341.62	6563.08	6386.1	6272.63	6377.3	6973.01	7318.66	7406.98	7481.88	7233.69	6490.27	6585.7	6510.09	6510.67	6615.83	6741.01	7460.5	7561.22	7842.59	7828.23	7761.85	7683.18	7639.49	6762.12	6761.01	6727.65	6706.29	6570.86	6646.9	6670.55	6677.71	7323.34	7532.35	7460.31	7564.01	8050.62	7591.11	7241.89	7150.0	7285.77	7591.11	8168.54	8782.51	9311.79	8660.83	8023.18	7652.61	7418.79	7424.28	7662.27	8042.54	8423.79	8365.39	8305.8	7937.65	7736.76	7700.68	7700.41	7692.94	7858.74	7850.22	7912.73	8268.09	8755.97	8772.49	8884.33	9515.58	9533.03	9395.81	8343.36	8285.3	7832.6	7875.04	8129.74	8269.9	14152.4	13944.17	13548.33	13465.61	13410.04	13461.44	13751.58	13932.09	14040.45	14131.8	14073.42	14001.47	13579.19	13678.48	13696.94	13641.71	13588.95	13693.01	13789.72	13753.41	14068.75	14173.97	14342.64	14325.55	14331.48	14289.03	14262.57	13815.07	13798.78	13785.26	13759.59	13771.03	13771.38	14208.49	14170.44	14222.29	
5100.0	3950.0	2550.0	1400.0		1150.0	2550.0	3700.0	4262.22	3110.06	1722.94	604.15	880.64	2015.56	3404.05	4556.86	4257.49	4100.93	3119.5	2848.5	2925.27	1755.35	1640.32	742.46	605.48	588.78	1020.42	1252.46	2091.95	2276.18	2363.13	3465.0	3667.65	4605.02	4881.3	4795.87	3991.4	1554.43	1380.67	3794.9	7000.74	6714.75	6278.31	6253.85	6544.4	6792.53	7697.14	8134.57	8209.01	8272.25	7957.15	6892.61	6977.32	6799.36	6374.42	6476.17	6492.4	6838.38	6942.88	7146.77	7150.61	7117.32	7061.25	7028.64	6535.77	6577.33	6575.05	6569.19	6877.95	6990.8	7043.17	7064.83	8056.13	8305.8	8215.0	8347.11	8782.51	8168.54	7591.11	7285.77	7150.0	7241.89	7591.11	8050.62	8534.37	8023.09	7591.93	7420.41	7446.1	7665.51	8139.81	8686.92	9087.67	9020.7	8935.11	8404.54	8021.41	7972.05	7937.65	7724.72	7688.0	7664.15	7692.94	7855.65	8177.57	8181.06	8268.09	8761.06	8808.67	8711.56	7966.53	7962.18	7895.8	7994.14	8615.49	8798.93	13765.67	13624.54	13412.7	13403.4	13539.29	13663.05	14132.56	14377.47	14479.59	14565.7	14468.28	14388.58	13776.02	13871.28	13846.89	13782.1	13524.2	13626.08	13680.14	13633.28	13748.97	13853.98	13984.32	13956.76	13992.9	13964.46	13944.93	13726.12	13725.02	13719.09	13928.97	13955.33	13963.2	14633.22	14581.88	14653.79	
6250.0	5100.0	3700.0	2550.0	1150.0		1400.0	2550.0	3114.89	1965.96	607.89	650.0	2010.36	3159.91	4551.76	5705.48	3119.5	2972.65	1995.31	1732.36	1803.72	742.46	758.06	816.24	963.23	1048.22	2091.95	2306.0	3218.11	3406.94	3493.06	4605.02	4802.67	5749.02	6025.71	5940.67	5126.52	2627.02	725.43	2675.12	6563.08	6386.1	6272.63	6377.3	6973.01	7318.66	8420.5	8914.07	8978.21	9032.76	8676.19	7406.98	7481.88	7233.69	6490.27	6585.7	6510.09	6510.67	6615.83	6741.01	6762.12	6761.01	6727.65	6706.29	6570.86	6646.9	6670.55	6677.71	7323.34	7460.31	7532.35	7564.01	8780.16	9054.35	8951.89	9101.74	9496.58	8782.51	8050.62	7591.11	7241.89	7150.0	7285.77	7591.11	8023.18	7652.61	7418.79	7424.28	7662.27	8042.54	8682.59	9340.77	9750.27	9678.03	9575.03	8935.11	8423.79	8365.39	8305.8	7937.65	7736.76	7700.68	7700.41	7692.94	7858.74	7850.22	7912.73	8268.09	8343.36	8285.3	7832.6	7875.04	8129.74	8269.9	9156.45	9368.63	13548.33	13465.61	13410.04	13461.44	13751.58	13932.09	14539.19	14832.43	14929.13	15010.67	14883.59	14798.35	14040.45	14131.8	14073.42	14001.47	13579.19	13678.48	13696.94	13641.71	13588.95	13693.01	13789.72	13753.41	13815.07	13798.78	13785.26	13759.59	13771.03	13771.38	14170.44	14208.49	14222.29	15070.71	15009.37	15096.39	
7650.0	6500.0	5100.0	3950.0	2550.0	1400.0		1150.0	1722.94	604.15	880.64	2015.56	3404.05	4556.86	5950.17	7104.4	1755.35	1640.32	742.46	588.78	605.48	1020.42	1252.46	2091.95	2276.18	2363.13	3465.0	3667.65	4605.02	4795.87	4881.3	5998.02	6191.9	7144.32	7421.24	7336.54	6515.46	3991.4	1554.43	1380.67	6278.31	6253.85	6544.4	6792.53	7697.14	8134.57	9416.37	9960.37	10013.62	10058.95	9664.69	8209.01	8272.25	7957.15	6892.61	6977.32	6799.36	6374.42	6476.17	6492.4	6535.77	6577.33	6575.05	6569.19	6877.95	6990.8	7043.17	7064.83	8056.13	8215.0	8305.8	8347.11	9772.47	10068.33	9955.21	10121.35	10471.15	9662.94	8782.51	8168.54	7591.11	7285.77	7150.0	7241.89	7591.93	7420.41	7446.1	7665.51	8139.81	8686.92	9490.7	10255.24	10669.28	10592.33	10472.4	9726.57	9087.67	9020.7	8935.11	8404.54	8021.41	7972.05	7937.65	7724.72	7688.0	7664.15	7692.94	7855.65	7966.53	7962.18	7895.8	7994.14	8615.49	8798.93	9955.63	10195.16	13412.7	13403.4	13539.29	13663.05	14132.56	14377.47	15137.74	15483.84	15573.8	15649.65	15489.71	15398.74	14479.59	14565.7	14468.28	14388.58	13776.02	13871.28	13846.89	13782.1	13524.2	13626.08	13680.14	13633.28	13726.12	13725.02	13719.09	13928.97	13955.33	13963.2	14581.88	14633.22	14653.79	15700.84	15628.54	15732.16	
8800.0	7650.0	6250.0	5100.0	3700.0	2550.0	1150.0		607.89	650.0	2010.36	3159.91	4551.76	5705.48	7099.33	8253.79	742.46	758.06	816.24	1048.22	963.23	2091.95	2306.0	3218.11	3406.94	3493.06	4605.02	4802.67	5749.02	5940.67	6025.71	7144.32	7336.12	8291.64	8568.66	8484.16	7659.39	5126.52	2627.02	725.43	6272.63	6377.3	6973.01	7318.66	8420.5	8914.07	10304.93	10879.5	10925.11	10963.94	10546.62	8978.21	9032.76	8676.19	7406.98	7481.88	7233.69	6490.27	6585.7	6510.09	6570.86	6646.9	6670.55	6677.71	7323.34	7460.31	7532.35	7564.01	8780.16	8951.89	9054.35	9101.74	10656.28	10965.0	10845.33	11021.54	11338.54	10471.15	9496.58	8782.51	8050.62	7591.11	7241.89	7150.0	7418.79	7424.28	7662.27	8042.54	8682.59	9340.77	10250.34	11082.53	11496.98	11417.25	11286.33	10472.4	9750.27	9678.03	9575.03	8935.11	8423.79	8365.39	8305.8	7937.65	7736.76	7700.68	7700.41	7692.94	7832.6	7875.04	8129.74	8269.9	9156.45	9368.63	10704.84	10961.58	13410.04	13461.44	13751.58	13932.09	14539.19	14832.43	15705.89	16090.49	16174.94	16246.15	16061.95	15967.04	14929.13	15010.67	14883.59	14798.35	14040.45	14131.8	14073.42	14001.47	13579.19	13678.48	13696.94	13641.71	13759.59	13771.03	13771.38	14170.44	14208.49	14222.29	15009.37	15070.71	15096.39	16290.37	16210.07	16325.85	
9358.29	8208.75	6809.52	5660.44	4262.22	3114.89	1722.94	607.89		1155.0	2550.0	3705.0	5100.0	6255.0	7650.0	8805.0	278.62	475.85	1212.08	1484.8	1398.2	2594.83	2792.84	3740.27	3932.54	4017.19	5137.47	5327.14	6286.11	6479.18	6563.23	7684.99	7871.59	8834.34	9111.49	9027.72	8193.9	5650.17	3116.72	713.04	6100.8	6271.27	7023.33	7419.72	8627.84	9153.17	10609.29	11203.29	11243.45	11277.66	10845.73	9210.58	9259.48	8879.44	7500.63	7569.36	7284.5	6378.81	6469.74	6347.32	6416.36	6509.36	6546.25	6560.11	7379.37	7528.43	7610.77	7647.75	8985.86	9164.49	9273.58	9324.49	10956.33	11272.97	11149.14	11331.77	11625.56	10721.92	9692.56	8922.82	8108.18	7568.26	7109.47	6924.28	7150.0	7244.66	7591.11	8054.7	8782.51	9501.38	10471.15	11343.68	11757.19	11675.87	11538.16	10683.76	9914.05	9839.0	9726.19	9026.47	8446.9	8383.98	8311.03	7862.36	7577.4	7535.33	7520.15	7427.06	7579.91	7645.39	8064.03	8225.42	9252.41	9479.87	10917.44	11184.07	13196.84	13278.66	13647.86	13858.07	14538.79	14858.48	15795.37	16202.09	16283.1	16351.41	16153.16	16056.11	14951.89	15030.66	14887.22	14799.09	13963.66	14052.69	13976.36	13900.81	13394.53	13492.23	13492.71	13433.43	13563.57	13581.31	13584.84	14081.05	14125.24	14142.17	15019.53	15086.35	15114.86	16391.41	16306.5	16429.3	
8203.81	7054.43	5655.53	4506.94	3110.06	1965.96	604.15	650.0	1155.0		1395.0	2550.0	3945.0	5100.0	6495.0	7650.0	1158.12	1036.17	276.13	414.56	337.65	1451.29	1660.32	2589.64	2780.9	2866.11	3984.5	4176.68	5132.37	5325.21	5409.46	6530.79	6718.46	7679.93	7957.07	7873.2	7041.04	4500.14	1982.74	785.02	5999.26	6038.41	6496.77	6804.06	7837.73	8314.63	9677.65	10245.77	10293.0	10333.25	9921.0	8381.89	8439.13	8095.14	6897.2	6976.15	6755.83	6155.61	6254.56	6225.45	6277.44	6336.11	6346.75	6347.42	6841.14	6968.59	7032.87	7060.61	8197.64	8365.48	8464.41	8509.98	10030.27	10336.16	10217.94	10391.93	10716.81	9864.71	8918.1	8237.72	7564.39	7170.25	6921.89	6926.04	7240.71	7150.0	7282.85	7591.11	8164.37	8782.51	9658.1	10471.15	10885.71	10806.7	10678.78	9884.65	9189.45	9118.96	9021.99	8422.07	7962.3	7907.66	7858.83	7560.51	7440.13	7410.24	7425.04	7509.74	7633.72	7650.57	7743.17	7864.24	8639.71	8841.17	10116.21	10367.8	13149.12	13169.2	13383.43	13537.38	14083.26	14356.13	15184.37	15554.46	15641.02	15714.02	15539.02	15445.59	14455.17	14538.68	14424.16	14341.24	13647.97	13741.21	13698.77	13630.16	13288.61	13389.32	13426.14	13375.21	13480.22	13485.22	13482.36	13788.81	13821.41	13832.44	14544.8	14601.93	14625.46	15760.91	15683.63	15794.82	
6809.52	5660.44	4262.22	3114.89	1722.94	607.89	880.64	2010.36	2550.0	1395.0		1155.0	2550.0	3705.0	5100.0	6255.0	2535.18	2378.64	1397.72	1129.8	1204.18	278.62	475.85	1212.08	1398.2	1484.8	2594.83	2792.84	3740.27	3932.54	4017.19	5137.47	5327.14	6286.11	6563.23	6479.18	5650.17	3116.72	713.04	2075.56	6173.93	6050.67	6100.8	6271.27	7023.33	7419.72	8627.84	9153.17	9210.58	9259.48	8879.44	7500.63	7569.36	7284.5	6378.81	6469.74	6347.32	6174.45	6278.92	6365.37	6394.46	6408.69	6386.53	6370.8	6416.36	6509.36	6546.25	6560.11	7379.37	7528.43	7610.77	7647.75	8985.86	9273.58	9164.49	9324.49	9692.56	8922.82	8108.18	7568.26	7109.47	6924.28	6953.53	7184.54	7591.11	7286.78	7150.0	7244.66	7591.11	8054.7	8782.51	9501.38	9914.05	9839.0	9726.19	9026.47	8446.9	8383.98	8311.03	7862.36	7577.4	7535.33	7520.15	7427.06	7515.9	7501.75	7552.3	7842.88	7930.1	7889.96	7579.91	7645.39	8064.03	8225.42	9252.41	9479.87	13230.81	13175.91	13196.84	13278.66	13647.86	13858.07	14538.79	14858.48	14951.89	15030.66	14887.22	14799.09	13963.66	14052.69	13976.36	13900.81	13394.53	13492.23	13492.71	13433.43	13298.43	13401.78	13482.31	13441.97	13515.54	13505.05	13494.44	13563.57	13581.31	13584.84	14081.05	14125.24	14142.17	15086.35	15019.53	15114.86	
5655.53	4506.94	3110.06	1965.96	604.15	650.0	2015.56	3159.91	3705.0	2550.0	1155.0		1395.0	2550.0	3945.0	5100.0	3685.27	3520.75	2539.93	2265.87	2345.12	1158.12	1036.17	276.13	337.65	414.56	1451.29	1660.32	2589.64	2780.9	2866.11	3984.5	4176.68	5132.37	5409.46	5325.21	4500.14	1982.74	785.02	3210.33	6540.58	6295.6	5999.26	6038.41	6496.77	6804.06	7837.73	8314.63	8381.89	8439.13	8095.14	6897.2	6976.15	6755.83	6155.61	6254.56	6225.45	6420.02	6525.13	6698.97	6709.42	6688.52	6641.25	6613.04	6277.44	6336.11	6346.75	6347.42	6841.14	6968.59	7032.87	7060.61	8197.64	8464.41	8365.48	8509.98	8918.1	8237.72	7564.39	7170.25	6921.89	6926.04	7184.01	7585.02	8051.14	7591.11	7240.71	7150.0	7282.85	7591.11	8164.37	8782.51	9189.45	9118.96	9021.99	8422.07	7962.3	7907.66	7858.83	7560.51	7440.13	7410.24	7425.04	7509.74	7766.46	7765.13	7842.59	8284.7	8342.4	8259.62	7633.72	7650.57	7743.17	7864.24	8639.71	8841.17	13404.75	13289.09	13149.12	13169.2	13383.43	13537.38	14083.26	14356.13	14455.17	14538.68	14424.16	14341.24	13647.97	13741.21	13698.77	13630.16	13288.61	13389.32	13426.14	13375.21	13413.14	13517.82	13633.46	13602.07	13649.4	13626.31	13609.43	13480.22	13485.22	13482.36	13788.81	13821.41	13832.44	14601.93	14544.8	14625.46	
